timestampMs,poorSignal,eegRawValue,eegRawValueVolts,attention,meditation,blinkStrength,delta,theta,alphaLow,alphaHigh,betaLow,betaHigh,gammaLow,gammaMid,tagEvent,location
1488856390145,0,7,1.5380859375E-6,0,0,41,266374,87679,16058,4091,1721,3490,2737,1546,Tag0,unknown
1488856390146,0,-262,-5.7568359375E-5,0,0,41,266374,87679,16058,4091,1721,3490,2737,1546,Tag0,unknown
1488856390146,0,-260,-5.712890625E-5,0,0,41,266374,87679,16058,4091,1721,3490,2737,1546,Tag0,unknown
1488856390146,0,32,7.03125E-6,0,0,41,266374,87679,16058,4091,1721,3490,2737,1546,Tag0,unknown
1488856390146,0,40,8.7890625E-6,0,0,41,266374,87679,16058,4091,1721,3490,2737,1546,Tag0,unknown
1488856390146,0,4,8.7890625E-7,0,0,41,266374,87679,16058,4091,1721,3490,2737,1546,Tag0,unknown
1488856390147,0,-267,-5.86669921875E-5,0,0,41,266374,87679,16058,4091,1721,3490,2737,1546,Tag0,unknown
1488856390158,0,5,1.0986328125E-6,0,0,41,266374,87679,16058,4091,1721,3490,2737,1546,Tag0,unknown
1488856390158,0,12,2.63671875E-6,0,0,41,266374,87679,16058,4091,1721,3490,2737,1546,Tag0,unknown
1488856390159,0,8,1.7578125E-6,0,0,41,266374,87679,16058,4091,1721,3490,2737,1546,Tag0,unknown
1488856390159,0,4,8.7890625E-7,0,0,41,266374,87679,16058,4091,1721,3490,2737,1546,Tag0,unknown
1488856390159,0,-258,-5.6689453125000004E-5,0,0,41,266374,87679,16058,4091,1721,3490,2737,1546,Tag0,unknown
1488856390159,0,-262,-5.7568359375E-5,0,0,41,266374,87679,16058,4091,1721,3490,2737,1546,Tag0,unknown
1488856390159,0,-264,-5.80078125E-5,0,0,41,266374,87679,16058,4091,1721,3490,2737,1546,Tag0,unknown
1488856390160,0,2,4.39453125E-7,0,0,41,266374,87679,16058,4091,1721,3490,2737,1546,Tag0,unknown
1488856390160,0,17,3.7353515625000003E-6,0,0,41,266374,87679,16058,4091,1721,3490,2737,1546,Tag0,unknown
1488856390160,0,25,5.4931640625E-6,0,0,41,266374,87679,16058,4091,1721,3490,2737,1546,Tag0,unknown
1488856390160,0,26,5.712890625E-6,0,0,41,266374,87679,16058,4091,1721,3490,2737,1546,Tag0,unknown
1488856390160,0,32,7.03125E-6,0,0,41,266374,87679,16058,4091,1721,3490,2737,1546,Tag0,unknown
1488856390160,0,39,8.5693359375E-6,0,0,41,266374,87679,16058,4091,1721,3490,2737,1546,Tag0,unknown
1488856390216,0,39,8.5693359375E-6,0,0,41,266374,87679,16058,4091,1721,3490,2737,1546,Tag0,unknown
1488856390216,0,23,5.0537109375E-6,0,0,41,266374,87679,16058,4091,1721,3490,2737,1546,Tag0,unknown
1488856390217,0,11,2.4169921875E-6,0,0,41,266374,87679,16058,4091,1721,3490,2737,1546,Tag0,unknown
1488856390217,0,11,2.4169921875E-6,0,0,41,266374,87679,16058,4091,1721,3490,2737,1546,Tag0,unknown
1488856390225,0,23,5.0537109375E-6,0,0,41,266374,87679,16058,4091,1721,3490,2737,1546,Tag0,unknown
1488856390225,0,36,7.91015625E-6,0,0,41,266374,87679,16058,4091,1721,3490,2737,1546,Tag0,unknown
1488856390225,0,38,8.349609375E-6,0,0,41,266374,87679,16058,4091,1721,3490,2737,1546,Tag0,unknown
1488856390226,0,32,7.03125E-6,0,0,41,266374,87679,16058,4091,1721,3490,2737,1546,Tag0,unknown
1488856390226,0,18,3.955078125E-6,0,0,41,266374,87679,16058,4091,1721,3490,2737,1546,Tag0,unknown
1488856390226,0,9,1.9775390625E-6,0,0,41,266374,87679,16058,4091,1721,3490,2737,1546,Tag0,unknown
1488856390226,0,21,4.614257812500001E-6,0,0,41,266374,87679,16058,4091,1721,3490,2737,1546,Tag0,unknown
1488856390226,0,21,4.614257812500001E-6,0,0,41,266374,87679,16058,4091,1721,3490,2737,1546,Tag0,unknown
1488856390226,0,11,2.4169921875E-6,0,0,41,266374,87679,16058,4091,1721,3490,2737,1546,Tag0,unknown
1488856390227,0,8,1.7578125E-6,0,0,41,266374,87679,16058,4091,1721,3490,2737,1546,Tag0,unknown
1488856390227,0,0,0.0,0,0,41,266374,87679,16058,4091,1721,3490,2737,1546,Tag0,unknown
1488856390227,0,-265,-5.82275390625E-5,0,0,41,266374,87679,16058,4091,1721,3490,2737,1546,Tag0,unknown
1488856390227,0,1,2.197265625E-7,0,0,41,266374,87679,16058,4091,1721,3490,2737,1546,Tag0,unknown
1488856390227,0,37,8.1298828125E-6,0,0,41,266374,87679,16058,4091,1721,3490,2737,1546,Tag0,unknown
1488856390227,0,66,1.4501953125E-5,0,0,41,266374,87679,16058,4091,1721,3490,2737,1546,Tag0,unknown
1488856390228,0,64,1.40625E-5,0,0,41,266374,87679,16058,4091,1721,3490,2737,1546,Tag0,unknown
1488856390228,0,50,1.0986328125E-5,0,0,41,266374,87679,16058,4091,1721,3490,2737,1546,Tag0,unknown
1488856390228,0,53,1.1645507812500002E-5,0,0,41,266374,87679,16058,4091,1721,3490,2737,1546,Tag0,unknown
1488856390228,0,69,1.51611328125E-5,0,0,41,266374,87679,16058,4091,1721,3490,2737,1546,Tag0,unknown
1488856390228,0,85,1.86767578125E-5,0,0,41,266374,87679,16058,4091,1721,3490,2737,1546,Tag0,unknown
1488856390228,0,88,1.93359375E-5,0,0,41,266374,87679,16058,4091,1721,3490,2737,1546,Tag0,unknown
1488856390228,0,87,1.91162109375E-5,0,0,41,266374,87679,16058,4091,1721,3490,2737,1546,Tag0,unknown
1488856390229,0,71,1.56005859375E-5,0,0,41,266374,87679,16058,4091,1721,3490,2737,1546,Tag0,unknown
1488856390229,0,59,1.29638671875E-5,0,0,41,266374,87679,16058,4091,1721,3490,2737,1546,Tag0,unknown
1488856390229,0,61,1.34033203125E-5,0,0,41,266374,87679,16058,4091,1721,3490,2737,1546,Tag0,unknown
1488856390229,0,65,1.42822265625E-5,0,0,41,266374,87679,16058,4091,1721,3490,2737,1546,Tag0,unknown
1488856390243,0,75,1.64794921875E-5,0,0,41,266374,87679,16058,4091,1721,3490,2737,1546,Tag0,unknown
1488856390243,0,97,2.13134765625E-5,0,0,41,266374,87679,16058,4091,1721,3490,2737,1546,Tag0,unknown
1488856390243,0,97,2.13134765625E-5,0,0,41,266374,87679,16058,4091,1721,3490,2737,1546,Tag0,unknown
1488856390243,0,73,1.6040039062500002E-5,0,0,41,266374,87679,16058,4091,1721,3490,2737,1546,Tag0,unknown
1488856390243,0,59,1.29638671875E-5,0,0,41,266374,87679,16058,4091,1721,3490,2737,1546,Tag0,unknown
1488856390244,0,52,1.142578125E-5,0,0,41,266374,87679,16058,4091,1721,3490,2737,1546,Tag0,unknown
1488856390244,0,41,9.008789062499999E-6,0,0,41,266374,87679,16058,4091,1721,3490,2737,1546,Tag0,unknown
1488856390244,0,51,1.1206054687499999E-5,0,0,41,266374,87679,16058,4091,1721,3490,2737,1546,Tag0,unknown
1488856390244,0,68,1.4941406250000001E-5,0,0,41,266374,87679,16058,4091,1721,3490,2737,1546,Tag0,unknown
1488856390244,0,75,1.64794921875E-5,0,0,41,266374,87679,16058,4091,1721,3490,2737,1546,Tag0,unknown
1488856390266,0,76,1.669921875E-5,0,0,41,266374,87679,16058,4091,1721,3490,2737,1546,Tag0,unknown
1488856390268,0,80,1.7578125E-5,0,0,41,266374,87679,16058,4091,1721,3490,2737,1546,Tag0,unknown
1488856390268,0,96,2.109375E-5,0,0,41,266374,87679,16058,4091,1721,3490,2737,1546,Tag0,unknown
1488856390268,0,114,2.5048828125000003E-5,0,0,41,266374,87679,16058,4091,1721,3490,2737,1546,Tag0,unknown
1488856390269,0,121,2.6586914062500003E-5,0,0,41,266374,87679,16058,4091,1721,3490,2737,1546,Tag0,unknown
1488856390269,0,112,2.4609375E-5,0,0,41,266374,87679,16058,4091,1721,3490,2737,1546,Tag0,unknown
1488856390269,0,81,1.77978515625E-5,0,0,41,266374,87679,16058,4091,1721,3490,2737,1546,Tag0,unknown
1488856390269,0,66,1.4501953125E-5,0,0,41,266374,87679,16058,4091,1721,3490,2737,1546,Tag0,unknown
1488856390269,0,56,1.23046875E-5,0,0,41,266374,87679,16058,4091,1721,3490,2737,1546,Tag0,unknown
1488856390269,0,43,9.448242187500001E-6,0,0,41,266374,87679,16058,4091,1721,3490,2737,1546,Tag0,unknown
1488856390274,0,40,8.7890625E-6,0,0,41,266374,87679,16058,4091,1721,3490,2737,1546,Tag0,unknown
1488856390274,0,38,8.349609375E-6,0,0,41,266374,87679,16058,4091,1721,3490,2737,1546,Tag0,unknown
1488856390274,0,34,7.4707031250000005E-6,0,0,41,266374,87679,16058,4091,1721,3490,2737,1546,Tag0,unknown
1488856390275,0,42,9.228515625000002E-6,0,0,41,266374,87679,16058,4091,1721,3490,2737,1546,Tag0,unknown
1488856390275,0,49,1.07666015625E-5,0,0,41,266374,87679,16058,4091,1721,3490,2737,1546,Tag0,unknown
1488856390275,0,37,8.1298828125E-6,0,0,41,266374,87679,16058,4091,1721,3490,2737,1546,Tag0,unknown
1488856390275,0,32,7.03125E-6,0,0,41,266374,87679,16058,4091,1721,3490,2737,1546,Tag0,unknown
1488856390275,0,27,5.9326171875000005E-6,0,0,41,266374,87679,16058,4091,1721,3490,2737,1546,Tag0,unknown
1488856390276,0,11,2.4169921875E-6,0,0,41,266374,87679,16058,4091,1721,3490,2737,1546,Tag0,unknown
1488856390276,0,-260,-5.712890625E-5,0,0,41,266374,87679,16058,4091,1721,3490,2737,1546,Tag0,unknown
1488856390302,0,8,1.7578125E-6,0,0,41,266374,87679,16058,4091,1721,3490,2737,1546,Tag0,unknown
1488856390302,0,32,7.03125E-6,0,0,41,266374,87679,16058,4091,1721,3490,2737,1546,Tag0,unknown
1488856390302,0,23,5.0537109375E-6,0,0,41,266374,87679,16058,4091,1721,3490,2737,1546,Tag0,unknown
1488856390303,0,16,3.515625E-6,0,0,41,266374,87679,16058,4091,1721,3490,2737,1546,Tag0,unknown
1488856390303,0,20,4.39453125E-6,0,0,41,266374,87679,16058,4091,1721,3490,2737,1546,Tag0,unknown
1488856390303,0,23,5.0537109375E-6,0,0,41,266374,87679,16058,4091,1721,3490,2737,1546,Tag0,unknown
1488856390303,0,25,5.4931640625E-6,0,0,41,266374,87679,16058,4091,1721,3490,2737,1546,Tag0,unknown
1488856390303,0,25,5.4931640625E-6,0,0,41,266374,87679,16058,4091,1721,3490,2737,1546,Tag0,unknown
1488856390303,0,21,4.614257812500001E-6,0,0,41,266374,87679,16058,4091,1721,3490,2737,1546,Tag0,unknown
1488856390305,0,-258,-5.6689453125000004E-5,0,0,41,266374,87679,16058,4091,1721,3490,2737,1546,Tag0,unknown
1488856390309,0,-280,-6.15234375E-5,0,0,41,266374,87679,16058,4091,1721,3490,2737,1546,Tag0,unknown
1488856390309,0,-291,-6.39404296875E-5,0,0,41,266374,87679,16058,4091,1721,3490,2737,1546,Tag0,unknown
1488856390309,0,-294,-6.4599609375E-5,0,0,41,266374,87679,16058,4091,1721,3490,2737,1546,Tag0,unknown
1488856390310,0,-283,-6.218261718750001E-5,0,0,41,266374,87679,16058,4091,1721,3490,2737,1546,Tag0,unknown
1488856390310,0,2,4.39453125E-7,0,0,41,266374,87679,16058,4091,1721,3490,2737,1546,Tag0,unknown
1488856390310,0,28,6.15234375E-6,0,0,41,266374,87679,16058,4091,1721,3490,2737,1546,Tag0,unknown
1488856390310,0,25,5.4931640625E-6,0,0,41,266374,87679,16058,4091,1721,3490,2737,1546,Tag0,unknown
1488856390310,0,3,6.591796875E-7,0,0,41,266374,87679,16058,4091,1721,3490,2737,1546,Tag0,unknown
1488856390311,0,-262,-5.7568359375E-5,0,0,41,266374,87679,16058,4091,1721,3490,2737,1546,Tag0,unknown
1488856390311,0,-269,-5.9106445312499996E-5,0,0,41,266374,87679,16058,4091,1721,3490,2737,1546,Tag0,unknown
1488856390340,0,-294,-6.4599609375E-5,0,0,41,266374,87679,16058,4091,1721,3490,2737,1546,Tag0,unknown
1488856390340,0,-309,-6.78955078125E-5,0,0,41,266374,87679,16058,4091,1721,3490,2737,1546,Tag0,unknown
1488856390341,0,-300,-6.591796875E-5,0,0,41,266374,87679,16058,4091,1721,3490,2737,1546,Tag0,unknown
1488856390341,0,-280,-6.15234375E-5,0,0,41,266374,87679,16058,4091,1721,3490,2737,1546,Tag0,unknown
1488856390358,0,-274,-6.0205078124999997E-5,0,0,41,266374,87679,16058,4091,1721,3490,2737,1546,Tag0,unknown
1488856390358,0,-285,-6.26220703125E-5,0,0,41,266374,87679,16058,4091,1721,3490,2737,1546,Tag0,unknown
1488856390358,0,-294,-6.4599609375E-5,0,0,41,266374,87679,16058,4091,1721,3490,2737,1546,Tag0,unknown
1488856390358,0,-279,-6.13037109375E-5,0,0,41,266374,87679,16058,4091,1721,3490,2737,1546,Tag0,unknown
1488856390358,0,-258,-5.6689453125000004E-5,0,0,41,266374,87679,16058,4091,1721,3490,2737,1546,Tag0,unknown
1488856390359,0,0,0.0,0,0,41,266374,87679,16058,4091,1721,3490,2737,1546,Tag0,unknown
1488856390359,0,-262,-5.7568359375E-5,0,0,41,266374,87679,16058,4091,1721,3490,2737,1546,Tag0,unknown
1488856390359,0,-257,-5.64697265625E-5,0,0,41,266374,87679,16058,4091,1721,3490,2737,1546,Tag0,unknown
1488856390359,0,9,1.9775390625E-6,0,0,41,266374,87679,16058,4091,1721,3490,2737,1546,Tag0,unknown
1488856390359,0,4,8.7890625E-7,0,0,41,266374,87679,16058,4091,1721,3490,2737,1546,Tag0,unknown
1488856390360,0,-267,-5.86669921875E-5,0,0,41,266374,87679,16058,4091,1721,3490,2737,1546,Tag0,unknown
1488856390360,0,-270,-5.9326171875E-5,0,0,41,266374,87679,16058,4091,1721,3490,2737,1546,Tag0,unknown
1488856390360,0,-258,-5.6689453125000004E-5,0,0,41,266374,87679,16058,4091,1721,3490,2737,1546,Tag0,unknown
1488856390360,0,12,2.63671875E-6,0,0,41,266374,87679,16058,4091,1721,3490,2737,1546,Tag0,unknown
1488856390361,0,28,6.15234375E-6,0,0,41,266374,87679,16058,4091,1721,3490,2737,1546,Tag0,unknown
1488856390361,0,49,1.07666015625E-5,0,0,41,266374,87679,16058,4091,1721,3490,2737,1546,Tag0,unknown
1488856390377,0,45,9.8876953125E-6,0,0,41,266374,87679,16058,4091,1721,3490,2737,1546,Tag0,unknown
1488856390378,0,35,7.6904296875E-6,0,0,41,266374,87679,16058,4091,1721,3490,2737,1546,Tag0,unknown
1488856390378,0,34,7.4707031250000005E-6,0,0,41,266374,87679,16058,4091,1721,3490,2737,1546,Tag0,unknown
1488856390392,0,54,1.1865234375000001E-5,0,0,41,266374,87679,16058,4091,1721,3490,2737,1546,Tag0,unknown
1488856390392,0,61,1.34033203125E-5,0,0,41,266374,87679,16058,4091,1721,3490,2737,1546,Tag0,unknown
1488856390392,0,39,8.5693359375E-6,0,0,41,266374,87679,16058,4091,1721,3490,2737,1546,Tag0,unknown
1488856390392,0,18,3.955078125E-6,0,0,41,266374,87679,16058,4091,1721,3490,2737,1546,Tag0,unknown
1488856390392,0,22,4.833984375E-6,0,0,41,266374,87679,16058,4091,1721,3490,2737,1546,Tag0,unknown
1488856390393,0,36,7.91015625E-6,0,0,41,266374,87679,16058,4091,1721,3490,2737,1546,Tag0,unknown
1488856390393,0,34,7.4707031250000005E-6,0,0,41,266374,87679,16058,4091,1721,3490,2737,1546,Tag0,unknown
1488856390393,0,22,4.833984375E-6,0,0,41,266374,87679,16058,4091,1721,3490,2737,1546,Tag0,unknown
1488856390393,0,24,5.2734375E-6,0,0,41,266374,87679,16058,4091,1721,3490,2737,1546,Tag0,unknown
1488856390393,0,45,9.8876953125E-6,0,0,41,266374,87679,16058,4091,1721,3490,2737,1546,Tag0,unknown
1488856390393,0,61,1.34033203125E-5,0,0,41,266374,87679,16058,4091,1721,3490,2737,1546,Tag0,unknown
1488856390394,0,67,1.4721679687500002E-5,0,0,41,266374,87679,16058,4091,1721,3490,2737,1546,Tag0,unknown
1488856390394,0,67,1.4721679687500002E-5,0,0,41,266374,87679,16058,4091,1721,3490,2737,1546,Tag0,unknown
1488856390394,0,58,1.2744140625E-5,0,0,41,266374,87679,16058,4091,1721,3490,2737,1546,Tag0,unknown
1488856390394,0,58,1.2744140625E-5,0,0,41,266374,87679,16058,4091,1721,3490,2737,1546,Tag0,unknown
1488856390394,0,58,1.2744140625E-5,0,0,41,266374,87679,16058,4091,1721,3490,2737,1546,Tag0,unknown
1488856390394,0,49,1.07666015625E-5,0,0,41,266374,87679,16058,4091,1721,3490,2737,1546,Tag0,unknown
1488856390418,0,38,8.349609375E-6,0,0,41,266374,87679,16058,4091,1721,3490,2737,1546,Tag0,unknown
1488856390418,0,49,1.07666015625E-5,0,0,41,266374,87679,16058,4091,1721,3490,2737,1546,Tag0,unknown
1488856390419,0,80,1.7578125E-5,0,0,41,266374,87679,16058,4091,1721,3490,2737,1546,Tag0,unknown
1488856390419,0,102,2.2412109374999998E-5,0,0,41,266374,87679,16058,4091,1721,3490,2737,1546,Tag0,unknown
1488856390419,0,81,1.77978515625E-5,0,0,41,266374,87679,16058,4091,1721,3490,2737,1546,Tag0,unknown
1488856390419,0,54,1.1865234375000001E-5,0,0,41,266374,87679,16058,4091,1721,3490,2737,1546,Tag0,unknown
1488856390420,0,54,1.1865234375000001E-5,0,0,41,266374,87679,16058,4091,1721,3490,2737,1546,Tag0,unknown
1488856390420,0,70,1.5380859375E-5,0,0,41,266374,87679,16058,4091,1721,3490,2737,1546,Tag0,unknown
1488856390420,0,77,1.69189453125E-5,0,0,41,266374,87679,16058,4091,1721,3490,2737,1546,Tag0,unknown
1488856390420,0,70,1.5380859375E-5,0,0,41,266374,87679,16058,4091,1721,3490,2737,1546,Tag0,unknown
1488856390427,0,65,1.42822265625E-5,0,0,41,266374,87679,16058,4091,1721,3490,2737,1546,Tag0,unknown
1488856390427,0,59,1.29638671875E-5,0,0,41,266374,87679,16058,4091,1721,3490,2737,1546,Tag0,unknown
1488856390428,0,54,1.1865234375000001E-5,0,0,41,266374,87679,16058,4091,1721,3490,2737,1546,Tag0,unknown
1488856390428,0,60,1.318359375E-5,0,0,41,266374,87679,16058,4091,1721,3490,2737,1546,Tag0,unknown
1488856390428,0,73,1.6040039062500002E-5,0,0,41,266374,87679,16058,4091,1721,3490,2737,1546,Tag0,unknown
1488856390428,0,81,1.77978515625E-5,0,0,41,266374,87679,16058,4091,1721,3490,2737,1546,Tag0,unknown
1488856390428,0,84,1.8457031250000004E-5,0,0,41,266374,87679,16058,4091,1721,3490,2737,1546,Tag0,unknown
1488856390428,0,100,2.197265625E-5,0,0,41,266374,87679,16058,4091,1721,3490,2737,1546,Tag0,unknown
1488856390429,0,108,2.3730468750000002E-5,0,0,41,266374,87679,16058,4091,1721,3490,2737,1546,Tag0,unknown
1488856390429,0,102,2.2412109374999998E-5,0,0,41,266374,87679,16058,4091,1721,3490,2737,1546,Tag0,unknown
1488856390456,0,83,1.82373046875E-5,0,0,41,266374,87679,16058,4091,1721,3490,2737,1546,Tag0,unknown
1488856390461,0,71,1.56005859375E-5,0,0,41,266374,87679,16058,4091,1721,3490,2737,1546,Tag0,unknown
1488856390462,0,74,1.6259765625E-5,0,0,41,266374,87679,16058,4091,1721,3490,2737,1546,Tag0,unknown
1488856390462,0,69,1.51611328125E-5,0,0,41,266374,87679,16058,4091,1721,3490,2737,1546,Tag0,unknown
1488856390463,0,70,1.5380859375E-5,0,0,41,266374,87679,16058,4091,1721,3490,2737,1546,Tag0,unknown
1488856390463,0,71,1.56005859375E-5,0,0,41,266374,87679,16058,4091,1721,3490,2737,1546,Tag0,unknown
1488856390463,0,75,1.64794921875E-5,0,0,41,266374,87679,16058,4091,1721,3490,2737,1546,Tag0,unknown
1488856390463,0,85,1.86767578125E-5,0,0,41,266374,87679,16058,4091,1721,3490,2737,1546,Tag0,unknown
1488856390463,0,90,1.9775390625E-5,0,0,41,266374,87679,16058,4091,1721,3490,2737,1546,Tag0,unknown
1488856390464,0,84,1.8457031250000004E-5,0,0,41,266374,87679,16058,4091,1721,3490,2737,1546,Tag0,unknown
1488856390464,0,75,1.64794921875E-5,0,0,41,266374,87679,16058,4091,1721,3490,2737,1546,Tag0,unknown
1488856390464,0,74,1.6259765625E-5,0,0,41,266374,87679,16058,4091,1721,3490,2737,1546,Tag0,unknown
1488856390464,0,82,1.8017578124999998E-5,0,0,41,266374,87679,16058,4091,1721,3490,2737,1546,Tag0,unknown
1488856390465,0,83,1.82373046875E-5,0,0,41,266374,87679,16058,4091,1721,3490,2737,1546,Tag0,unknown
1488856390465,0,60,1.318359375E-5,0,0,41,266374,87679,16058,4091,1721,3490,2737,1546,Tag0,unknown
1488856390465,0,26,5.712890625E-6,0,0,41,266374,87679,16058,4091,1721,3490,2737,1546,Tag0,unknown
1488856390465,0,6,1.318359375E-6,0,0,41,266374,87679,16058,4091,1721,3490,2737,1546,Tag0,unknown
1488856390466,0,8,1.7578125E-6,0,0,41,266374,87679,16058,4091,1721,3490,2737,1546,Tag0,unknown
1488856390466,0,33,7.2509765625E-6,0,0,41,266374,87679,16058,4091,1721,3490,2737,1546,Tag0,unknown
1488856390466,0,39,8.5693359375E-6,0,0,41,266374,87679,16058,4091,1721,3490,2737,1546,Tag0,unknown
1488856390493,0,25,5.4931640625E-6,0,0,41,266374,87679,16058,4091,1721,3490,2737,1546,Tag0,unknown
1488856390509,0,20,4.39453125E-6,0,0,41,266374,87679,16058,4091,1721,3490,2737,1546,Tag0,unknown
1488856390509,0,24,5.2734375E-6,0,0,41,266374,87679,16058,4091,1721,3490,2737,1546,Tag0,unknown
1488856390509,0,16,3.515625E-6,0,0,41,266374,87679,16058,4091,1721,3490,2737,1546,Tag0,unknown
1488856390509,0,-275,-6.04248046875E-5,0,0,41,266374,87679,16058,4091,1721,3490,2737,1546,Tag0,unknown
1488856390509,0,-289,-6.35009765625E-5,0,0,41,266374,87679,16058,4091,1721,3490,2737,1546,Tag0,unknown
1488856390510,0,-270,-5.9326171875E-5,0,0,41,266374,87679,16058,4091,1721,3490,2737,1546,Tag0,unknown
1488856390510,0,-273,-5.998535156250001E-5,0,0,41,266374,87679,16058,4091,1721,3490,2737,1546,Tag0,unknown
1488856390510,0,-300,-6.591796875E-5,0,0,41,266374,87679,16058,4091,1721,3490,2737,1546,Tag0,unknown
1488856390511,0,-329,-7.229003906250001E-5,0,0,41,266374,87679,16058,4091,1721,3490,2737,1546,Tag0,unknown
1488856390511,0,-327,-7.18505859375E-5,0,0,41,266374,87679,16058,4091,1721,3490,2737,1546,Tag0,unknown
1488856390511,0,-290,-6.3720703125E-5,0,0,41,266374,87679,16058,4091,1721,3490,2737,1546,Tag0,unknown
1488856390511,0,-261,-5.73486328125E-5,0,0,41,266374,87679,16058,4091,1721,3490,2737,1546,Tag0,unknown
1488856390512,0,-264,-5.80078125E-5,0,0,41,266374,87679,16058,4091,1721,3490,2737,1546,Tag0,unknown
1488856390512,0,-279,-6.13037109375E-5,0,0,41,266374,87679,16058,4091,1721,3490,2737,1546,Tag0,unknown
1488856390512,0,-279,-6.13037109375E-5,0,0,41,266374,87679,16058,4091,1721,3490,2737,1546,Tag0,unknown
1488856390512,0,-268,-5.8886718750000006E-5,0,0,41,266374,87679,16058,4091,1721,3490,2737,1546,Tag0,unknown
1488856390512,0,-286,-6.2841796875E-5,0,0,41,266374,87679,16058,4091,1721,3490,2737,1546,Tag0,unknown
1488856390513,0,-315,-6.92138671875E-5,0,0,41,266374,87679,16058,4091,1721,3490,2737,1546,Tag0,unknown
1488856390513,0,-323,-7.09716796875E-5,0,0,41,266374,87679,16058,4091,1721,3490,2737,1546,Tag0,unknown
1488856390537,0,-297,-6.525878906250001E-5,0,0,41,266374,87679,16058,4091,1721,3490,2737,1546,Tag0,unknown
1488856390538,0,-269,-5.9106445312499996E-5,0,0,41,266374,87679,16058,4091,1721,3490,2737,1546,Tag0,unknown
1488856390538,0,-265,-5.82275390625E-5,0,0,41,266374,87679,16058,4091,1721,3490,2737,1546,Tag0,unknown
1488856390538,0,-293,-6.43798828125E-5,0,0,41,266374,87679,16058,4091,1721,3490,2737,1546,Tag0,unknown
1488856390539,0,-324,-7.119140625E-5,0,0,41,266374,87679,16058,4091,1721,3490,2737,1546,Tag0,unknown
1488856390539,0,-318,-6.9873046875E-5,0,0,41,266374,87679,16058,4091,1721,3490,2737,1546,Tag0,unknown
1488856390539,0,-281,-6.17431640625E-5,0,0,41,266374,87679,16058,4091,1721,3490,2737,1546,Tag0,unknown
1488856390540,0,0,0.0,0,0,41,266374,87679,16058,4091,1721,3490,2737,1546,Tag0,unknown
1488856390542,0,-261,-5.73486328125E-5,0,0,41,266374,87679,16058,4091,1721,3490,2737,1546,Tag0,unknown
1488856390543,0,-264,-5.80078125E-5,0,0,41,266374,87679,16058,4091,1721,3490,2737,1546,Tag0,unknown
1488856390543,0,-261,-5.73486328125E-5,0,0,41,266374,87679,16058,4091,1721,3490,2737,1546,Tag0,unknown
1488856390543,0,-265,-5.82275390625E-5,0,0,41,266374,87679,16058,4091,1721,3490,2737,1546,Tag0,unknown
1488856390543,0,-282,-6.1962890625E-5,0,0,41,266374,87679,16058,4091,1721,3490,2737,1546,Tag0,unknown
1488856390544,0,-297,-6.525878906250001E-5,0,0,41,266374,87679,16058,4091,1721,3490,2737,1546,Tag0,unknown
1488856390544,0,-309,-6.78955078125E-5,0,0,41,266374,87679,16058,4091,1721,3490,2737,1546,Tag0,unknown
1488856390544,0,-305,-6.70166015625E-5,0,0,41,266374,87679,16058,4091,1721,3490,2737,1546,Tag0,unknown
1488856390544,0,-292,-6.416015625000001E-5,0,0,41,266374,87679,16058,4091,1721,3490,2737,1546,Tag0,unknown
1488856390545,0,-296,-6.50390625E-5,0,0,41,266374,87679,16058,4091,1721,3490,2737,1546,Tag0,unknown
1488856390545,0,-314,-6.8994140625E-5,0,0,41,266374,87679,16058,4091,1721,3490,2737,1546,Tag0,unknown
1488856390545,0,-316,-6.943359375000001E-5,0,0,41,266374,87679,16058,4091,1721,3490,2737,1546,Tag0,unknown
1488856390577,0,-294,-6.4599609375E-5,0,0,41,266374,87679,16058,4091,1721,3490,2737,1546,Tag0,unknown
1488856390577,0,-266,-5.8447265625E-5,0,0,41,266374,87679,16058,4091,1721,3490,2737,1546,Tag0,unknown
1488856390577,0,-270,-5.9326171875E-5,0,0,41,266374,87679,16058,4091,1721,3490,2737,1546,Tag0,unknown
1488856390577,0,-281,-6.17431640625E-5,0,0,41,266374,87679,16058,4091,1721,3490,2737,1546,Tag0,unknown
1488856390578,0,-269,-5.9106445312499996E-5,0,0,41,266374,87679,16058,4091,1721,3490,2737,1546,Tag0,unknown
1488856390578,0,6,1.318359375E-6,0,0,41,266374,87679,16058,4091,1721,3490,2737,1546,Tag0,unknown
1488856390578,0,8,1.7578125E-6,0,0,41,266374,87679,16058,4091,1721,3490,2737,1546,Tag0,unknown
1488856390593,0,-267,-5.86669921875E-5,0,0,41,266374,87679,16058,4091,1721,3490,2737,1546,Tag0,unknown
1488856390593,0,-286,-6.2841796875E-5,0,0,41,266374,87679,16058,4091,1721,3490,2737,1546,Tag0,unknown
1488856390593,0,-301,-6.613769531250001E-5,0,0,41,266374,87679,16058,4091,1721,3490,2737,1546,Tag0,unknown
1488856390593,0,-311,-6.833496093750001E-5,0,0,41,266374,87679,16058,4091,1721,3490,2737,1546,Tag0,unknown
1488856390594,0,-327,-7.18505859375E-5,0,0,41,266374,87679,16058,4091,1721,3490,2737,1546,Tag0,unknown
1488856390594,0,-346,-7.6025390625E-5,0,0,41,266374,87679,16058,4091,1721,3490,2737,1546,Tag0,unknown
1488856390594,0,-345,-7.58056640625E-5,0,0,41,266374,87679,16058,4091,1721,3490,2737,1546,Tag0,unknown
1488856390594,0,-329,-7.229003906250001E-5,0,0,41,266374,87679,16058,4091,1721,3490,2737,1546,Tag0,unknown
1488856390595,0,-306,-6.723632812500001E-5,0,0,41,266374,87679,16058,4091,1721,3490,2737,1546,Tag0,unknown
1488856390595,0,-301,-6.613769531250001E-5,0,0,41,266374,87679,16058,4091,1721,3490,2737,1546,Tag0,unknown
1488856390595,0,-321,-7.053222656250001E-5,0,0,41,266374,87679,16058,4091,1721,3490,2737,1546,Tag0,unknown
1488856390595,0,-308,-6.767578125E-5,0,0,41,266374,87679,16058,4091,1721,3490,2737,1546,Tag0,unknown
1488856390596,0,-280,-6.15234375E-5,0,0,41,266374,87679,16058,4091,1721,3490,2737,1546,Tag0,unknown
1488856390614,0,-269,-5.9106445312499996E-5,0,0,41,266374,87679,16058,4091,1721,3490,2737,1546,Tag0,unknown
1488856390614,0,-273,-5.998535156250001E-5,0,0,41,266374,87679,16058,4091,1721,3490,2737,1546,Tag0,unknown
1488856390614,0,-267,-5.86669921875E-5,0,0,41,266374,87679,16058,4091,1721,3490,2737,1546,Tag0,unknown
1488856390615,0,12,2.63671875E-6,0,0,41,266374,87679,16058,4091,1721,3490,2737,1546,Tag0,unknown
1488856390615,0,22,4.833984375E-6,0,0,41,266374,87679,16058,4091,1721,3490,2737,1546,Tag0,unknown
1488856390615,0,0,0.0,0,0,41,266374,87679,16058,4091,1721,3490,2737,1546,Tag0,unknown
1488856390615,0,-268,-5.8886718750000006E-5,0,0,41,266374,87679,16058,4091,1721,3490,2737,1546,Tag0,unknown
1488856390616,0,-261,-5.73486328125E-5,0,0,41,266374,87679,16058,4091,1721,3490,2737,1546,Tag0,unknown
1488856390616,0,6,1.318359375E-6,0,0,41,266374,87679,16058,4091,1721,3490,2737,1546,Tag0,unknown
1488856390616,0,5,1.0986328125E-6,0,0,41,266374,87679,16058,4091,1721,3490,2737,1546,Tag0,unknown
1488856390626,0,2,4.39453125E-7,0,0,41,266374,87679,16058,4091,1721,3490,2737,1546,Tag0,unknown
1488856390626,0,6,1.318359375E-6,0,0,41,266374,87679,16058,4091,1721,3490,2737,1546,Tag0,unknown
1488856390627,0,7,1.5380859375E-6,0,0,41,266374,87679,16058,4091,1721,3490,2737,1546,Tag0,unknown
1488856390627,0,-258,-5.6689453125000004E-5,0,0,41,266374,87679,16058,4091,1721,3490,2737,1546,Tag0,unknown
1488856390627,0,-267,-5.86669921875E-5,0,0,41,266374,87679,16058,4091,1721,3490,2737,1546,Tag0,unknown
1488856390627,0,1,2.197265625E-7,0,0,41,266374,87679,16058,4091,1721,3490,2737,1546,Tag0,unknown
1488856390628,0,19,4.1748046875E-6,0,0,41,266374,87679,16058,4091,1721,3490,2737,1546,Tag0,unknown
1488856390628,0,22,4.833984375E-6,0,0,41,266374,87679,16058,4091,1721,3490,2737,1546,Tag0,unknown
1488856390628,0,12,2.63671875E-6,0,0,41,266374,87679,16058,4091,1721,3490,2737,1546,Tag0,unknown
1488856390628,0,4,8.7890625E-7,0,0,41,266374,87679,16058,4091,1721,3490,2737,1546,Tag0,unknown
1488856390652,0,12,2.63671875E-6,0,0,41,266374,87679,16058,4091,1721,3490,2737,1546,Tag0,unknown
1488856390652,0,36,7.91015625E-6,0,0,41,266374,87679,16058,4091,1721,3490,2737,1546,Tag0,unknown
1488856390653,0,60,1.318359375E-5,0,0,41,266374,87679,16058,4091,1721,3490,2737,1546,Tag0,unknown
1488856390653,0,65,1.42822265625E-5,0,0,41,266374,87679,16058,4091,1721,3490,2737,1546,Tag0,unknown
1488856390653,0,53,1.1645507812500002E-5,0,0,41,266374,87679,16058,4091,1721,3490,2737,1546,Tag0,unknown
1488856390653,0,35,7.6904296875E-6,0,0,41,266374,87679,16058,4091,1721,3490,2737,1546,Tag0,unknown
1488856390653,0,21,4.614257812500001E-6,0,0,41,266374,87679,16058,4091,1721,3490,2737,1546,Tag0,unknown
1488856390653,0,13,2.8564453125E-6,0,0,41,266374,87679,16058,4091,1721,3490,2737,1546,Tag0,unknown
1488856390654,0,29,6.3720703125E-6,0,0,41,266374,87679,16058,4091,1721,3490,2737,1546,Tag0,unknown
1488856390660,0,55,1.20849609375E-5,0,0,41,266374,87679,16058,4091,1721,3490,2737,1546,Tag0,unknown
1488856390661,0,59,1.29638671875E-5,0,0,41,266374,87679,16058,4091,1721,3490,2737,1546,Tag0,unknown
1488856390661,0,43,9.448242187500001E-6,0,0,41,266374,87679,16058,4091,1721,3490,2737,1546,Tag0,unknown
1488856390661,0,25,5.4931640625E-6,0,0,41,266374,87679,16058,4091,1721,3490,2737,1546,Tag0,unknown
1488856390661,0,25,5.4931640625E-6,0,0,41,266374,87679,16058,4091,1721,3490,2737,1546,Tag0,unknown
1488856390662,0,48,1.0546875E-5,0,0,41,266374,87679,16058,4091,1721,3490,2737,1546,Tag0,unknown
1488856390662,0,68,1.4941406250000001E-5,0,0,41,266374,87679,16058,4091,1721,3490,2737,1546,Tag0,unknown
1488856390662,0,73,1.6040039062500002E-5,0,0,41,266374,87679,16058,4091,1721,3490,2737,1546,Tag0,unknown
1488856390662,0,67,1.4721679687500002E-5,0,0,41,266374,87679,16058,4091,1721,3490,2737,1546,Tag0,unknown
1488856390662,0,60,1.318359375E-5,0,0,41,266374,87679,16058,4091,1721,3490,2737,1546,Tag0,unknown
1488856390663,0,65,1.42822265625E-5,0,0,41,266374,87679,16058,4091,1721,3490,2737,1546,Tag0,unknown
1488856390691,0,72,1.58203125E-5,0,0,41,266374,87679,16058,4091,1721,3490,2737,1546,Tag0,unknown
1488856390693,0,72,1.58203125E-5,0,0,41,266374,87679,16058,4091,1721,3490,2737,1546,Tag0,unknown
1488856390709,0,67,1.4721679687500002E-5,0,0,41,266374,87679,16058,4091,1721,3490,2737,1546,Tag0,unknown
1488856390710,0,67,1.4721679687500002E-5,0,0,41,266374,87679,16058,4091,1721,3490,2737,1546,Tag0,unknown
1488856390710,0,70,1.5380859375E-5,0,0,41,266374,87679,16058,4091,1721,3490,2737,1546,Tag0,unknown
1488856390710,0,59,1.29638671875E-5,0,0,41,266374,87679,16058,4091,1721,3490,2737,1546,Tag0,unknown
1488856390710,0,39,8.5693359375E-6,0,0,41,266374,87679,16058,4091,1721,3490,2737,1546,Tag0,unknown
1488856390711,0,33,7.2509765625E-6,0,0,41,266374,87679,16058,4091,1721,3490,2737,1546,Tag0,unknown
1488856390711,0,41,9.008789062499999E-6,0,0,41,266374,87679,16058,4091,1721,3490,2737,1546,Tag0,unknown
1488856390711,0,54,1.1865234375000001E-5,0,0,41,266374,87679,16058,4091,1721,3490,2737,1546,Tag0,unknown
1488856390711,0,58,1.2744140625E-5,0,0,41,266374,87679,16058,4091,1721,3490,2737,1546,Tag0,unknown
1488856390712,0,41,9.008789062499999E-6,0,0,41,266374,87679,16058,4091,1721,3490,2737,1546,Tag0,unknown
1488856390712,0,17,3.7353515625000003E-6,0,0,41,266374,87679,16058,4091,1721,3490,2737,1546,Tag0,unknown
1488856390712,0,12,2.63671875E-6,0,0,41,266374,87679,16058,4091,1721,3490,2737,1546,Tag0,unknown
1488856390712,0,23,5.0537109375E-6,0,0,41,266374,87679,16058,4091,1721,3490,2737,1546,Tag0,unknown
1488856390712,0,32,7.03125E-6,0,0,41,266374,87679,16058,4091,1721,3490,2737,1546,Tag0,unknown
1488856390713,0,26,5.712890625E-6,0,0,41,266374,87679,16058,4091,1721,3490,2737,1546,Tag0,unknown
1488856390713,0,17,3.7353515625000003E-6,0,0,41,266374,87679,16058,4091,1721,3490,2737,1546,Tag0,unknown
1488856390743,0,25,5.4931640625E-6,0,0,41,16771607,135182,13227,6682,3024,8057,2217,9995,Tag0,unknown
1488856390744,0,42,9.228515625000002E-6,0,0,41,16771607,135182,13227,6682,3024,8057,2217,9995,Tag0,unknown
1488856390744,0,50,1.0986328125E-5,0,0,41,16771607,135182,13227,6682,3024,8057,2217,9995,Tag0,unknown
1488856390744,0,44,9.66796875E-6,0,0,41,16771607,135182,13227,6682,3024,8057,2217,9995,Tag0,unknown
1488856390744,0,33,7.2509765625E-6,0,0,41,16771607,135182,13227,6682,3024,8057,2217,9995,Tag0,unknown
1488856390745,0,27,5.9326171875000005E-6,0,0,41,16771607,135182,13227,6682,3024,8057,2217,9995,Tag0,unknown
1488856390745,0,22,4.833984375E-6,0,0,41,16771607,135182,13227,6682,3024,8057,2217,9995,Tag0,unknown
1488856390745,0,22,4.833984375E-6,0,0,41,16771607,135182,13227,6682,3024,8057,2217,9995,Tag0,unknown
1488856390745,0,29,6.3720703125E-6,0,0,41,16771607,135182,13227,6682,3024,8057,2217,9995,Tag0,unknown
1488856390746,0,32,7.03125E-6,0,0,41,16771607,135182,13227,6682,3024,8057,2217,9995,Tag0,unknown
1488856390746,0,11,2.4169921875E-6,0,0,41,16771607,135182,13227,6682,3024,8057,2217,9995,Tag0,unknown
1488856390746,0,-274,-6.0205078124999997E-5,0,0,41,16771607,135182,13227,6682,3024,8057,2217,9995,Tag0,unknown
1488856390746,0,-293,-6.43798828125E-5,0,0,41,16771607,135182,13227,6682,3024,8057,2217,9995,Tag0,unknown
1488856390747,0,-295,-6.48193359375E-5,0,0,41,16771607,135182,13227,6682,3024,8057,2217,9995,Tag0,unknown
1488856390747,0,-295,-6.48193359375E-5,0,0,41,16771607,135182,13227,6682,3024,8057,2217,9995,Tag0,unknown
1488856390747,0,-295,-6.48193359375E-5,0,0,41,16771607,135182,13227,6682,3024,8057,2217,9995,Tag0,unknown
1488856390747,0,-296,-6.50390625E-5,0,0,41,16771607,135182,13227,6682,3024,8057,2217,9995,Tag0,unknown
1488856390771,0,-285,-6.26220703125E-5,0,0,41,16771607,135182,13227,6682,3024,8057,2217,9995,Tag0,unknown
1488856390772,0,-263,-5.7788085937500005E-5,0,0,41,16771607,135182,13227,6682,3024,8057,2217,9995,Tag0,unknown
1488856390772,0,3,6.591796875E-7,0,0,41,16771607,135182,13227,6682,3024,8057,2217,9995,Tag0,unknown
1488856390772,0,-265,-5.82275390625E-5,0,0,41,16771607,135182,13227,6682,3024,8057,2217,9995,Tag0,unknown
1488856390772,0,-268,-5.8886718750000006E-5,0,0,41,16771607,135182,13227,6682,3024,8057,2217,9995,Tag0,unknown
1488856390773,0,-259,-5.69091796875E-5,0,0,41,16771607,135182,13227,6682,3024,8057,2217,9995,Tag0,unknown
1488856390773,0,7,1.5380859375E-6,0,0,41,16771607,135182,13227,6682,3024,8057,2217,9995,Tag0,unknown
1488856390773,0,13,2.8564453125E-6,0,0,41,16771607,135182,13227,6682,3024,8057,2217,9995,Tag0,unknown
1488856390774,0,11,2.4169921875E-6,0,0,41,16771607,135182,13227,6682,3024,8057,2217,9995,Tag0,unknown
1488856390774,0,9,1.9775390625E-6,0,0,41,16771607,135182,13227,6682,3024,8057,2217,9995,Tag0,unknown
1488856390775,0,16,3.515625E-6,0,0,41,16771607,135182,13227,6682,3024,8057,2217,9995,Tag0,unknown
1488856390775,0,10,2.197265625E-6,0,0,41,16771607,135182,13227,6682,3024,8057,2217,9995,Tag0,unknown
1488856390775,0,6,1.318359375E-6,0,0,41,16771607,135182,13227,6682,3024,8057,2217,9995,Tag0,unknown
1488856390776,0,17,3.7353515625000003E-6,0,0,41,16771607,135182,13227,6682,3024,8057,2217,9995,Tag0,unknown
1488856390778,0,23,5.0537109375E-6,0,0,41,16771607,135182,13227,6682,3024,8057,2217,9995,Tag0,unknown
1488856390778,0,10,2.197265625E-6,0,0,41,16771607,135182,13227,6682,3024,8057,2217,9995,Tag0,unknown
1488856390779,0,2,4.39453125E-7,0,0,41,16771607,135182,13227,6682,3024,8057,2217,9995,Tag0,unknown
1488856390779,0,4,8.7890625E-7,0,0,41,16771607,135182,13227,6682,3024,8057,2217,9995,Tag0,unknown
1488856390779,0,16,3.515625E-6,0,0,41,16771607,135182,13227,6682,3024,8057,2217,9995,Tag0,unknown
1488856390779,0,32,7.03125E-6,0,0,41,16771607,135182,13227,6682,3024,8057,2217,9995,Tag0,unknown
1488856390803,0,18,3.955078125E-6,0,0,41,16771607,135182,13227,6682,3024,8057,2217,9995,Tag0,unknown
1488856390810,0,-273,-5.998535156250001E-5,0,0,41,16771607,135182,13227,6682,3024,8057,2217,9995,Tag0,unknown
1488856390811,0,-281,-6.17431640625E-5,0,0,41,16771607,135182,13227,6682,3024,8057,2217,9995,Tag0,unknown
1488856390811,0,-269,-5.9106445312499996E-5,0,0,41,16771607,135182,13227,6682,3024,8057,2217,9995,Tag0,unknown
1488856390811,0,-270,-5.9326171875E-5,0,0,41,16771607,135182,13227,6682,3024,8057,2217,9995,Tag0,unknown
1488856390811,0,-299,-6.56982421875E-5,0,0,41,16771607,135182,13227,6682,3024,8057,2217,9995,Tag0,unknown
1488856390812,0,-328,-7.207031249999999E-5,0,0,41,16771607,135182,13227,6682,3024,8057,2217,9995,Tag0,unknown
1488856390812,0,-332,-7.294921875E-5,0,0,41,16771607,135182,13227,6682,3024,8057,2217,9995,Tag0,unknown
1488856390812,0,-313,-6.87744140625E-5,0,0,41,16771607,135182,13227,6682,3024,8057,2217,9995,Tag0,unknown
1488856390812,0,-280,-6.15234375E-5,0,0,41,16771607,135182,13227,6682,3024,8057,2217,9995,Tag0,unknown
1488856390813,0,8,1.7578125E-6,0,0,41,16771607,135182,13227,6682,3024,8057,2217,9995,Tag0,unknown
1488856390813,0,26,5.712890625E-6,0,0,41,16771607,135182,13227,6682,3024,8057,2217,9995,Tag0,unknown
1488856390813,0,-257,-5.64697265625E-5,0,0,41,16771607,135182,13227,6682,3024,8057,2217,9995,Tag0,unknown
1488856390813,0,-301,-6.613769531250001E-5,0,0,41,16771607,135182,13227,6682,3024,8057,2217,9995,Tag0,unknown
1488856390814,0,-323,-7.09716796875E-5,0,0,41,16771607,135182,13227,6682,3024,8057,2217,9995,Tag0,unknown
1488856390814,0,-316,-6.943359375000001E-5,0,0,41,16771607,135182,13227,6682,3024,8057,2217,9995,Tag0,unknown
1488856390814,0,-297,-6.525878906250001E-5,0,0,41,16771607,135182,13227,6682,3024,8057,2217,9995,Tag0,unknown
1488856390814,0,-259,-5.69091796875E-5,0,0,41,16771607,135182,13227,6682,3024,8057,2217,9995,Tag0,unknown
1488856390814,0,29,6.3720703125E-6,0,0,41,16771607,135182,13227,6682,3024,8057,2217,9995,Tag0,unknown
1488856390815,0,53,1.1645507812500002E-5,0,0,41,16771607,135182,13227,6682,3024,8057,2217,9995,Tag0,unknown
1488856390841,0,99,2.1752929687500003E-5,0,0,41,16771607,135182,13227,6682,3024,8057,2217,9995,Tag0,unknown
1488856390842,0,-105,-2.30712890625E-5,0,0,41,16771607,135182,13227,6682,3024,8057,2217,9995,Tag0,unknown
1488856390842,0,-87,-1.91162109375E-5,0,0,41,16771607,135182,13227,6682,3024,8057,2217,9995,Tag0,unknown
1488856390842,0,-110,-2.4169921875E-5,0,0,41,16771607,135182,13227,6682,3024,8057,2217,9995,Tag0,unknown
1488856390842,0,103,2.26318359375E-5,0,0,41,16771607,135182,13227,6682,3024,8057,2217,9995,Tag0,unknown
1488856390843,0,89,1.95556640625E-5,0,0,41,16771607,135182,13227,6682,3024,8057,2217,9995,Tag0,unknown
1488856390843,0,107,2.35107421875E-5,0,0,41,16771607,135182,13227,6682,3024,8057,2217,9995,Tag0,unknown
1488856390843,0,-120,-2.63671875E-5,0,0,41,16771607,135182,13227,6682,3024,8057,2217,9995,Tag0,unknown
1488856390846,0,-106,-2.3291015625000003E-5,0,0,41,16771607,135182,13227,6682,3024,8057,2217,9995,Tag0,unknown
1488856390846,0,-100,-2.197265625E-5,0,0,41,16771607,135182,13227,6682,3024,8057,2217,9995,Tag0,unknown
1488856390846,0,-93,-2.04345703125E-5,0,0,41,16771607,135182,13227,6682,3024,8057,2217,9995,Tag0,unknown
1488856390847,0,-91,-1.99951171875E-5,0,0,41,16771607,135182,13227,6682,3024,8057,2217,9995,Tag0,unknown
1488856390847,0,-102,-2.2412109374999998E-5,0,0,41,16771607,135182,13227,6682,3024,8057,2217,9995,Tag0,unknown
1488856390847,0,-119,-2.6147460937500004E-5,0,0,41,16771607,135182,13227,6682,3024,8057,2217,9995,Tag0,unknown
1488856390847,0,124,2.724609375E-5,0,0,41,16771607,135182,13227,6682,3024,8057,2217,9995,Tag0,unknown
1488856390848,0,-96,-2.109375E-5,0,0,41,16771607,135182,13227,6682,3024,8057,2217,9995,Tag0,unknown
1488856390848,0,-57,-1.2524414062500001E-5,0,0,41,16771607,135182,13227,6682,3024,8057,2217,9995,Tag0,unknown
1488856390848,0,-55,-1.20849609375E-5,0,0,41,16771607,135182,13227,6682,3024,8057,2217,9995,Tag0,unknown
1488856390848,0,-47,-1.0327148437500001E-5,0,0,41,16771607,135182,13227,6682,3024,8057,2217,9995,Tag0,unknown
1488856390849,0,-22,-4.833984375E-6,0,0,41,16771607,135182,13227,6682,3024,8057,2217,9995,Tag0,unknown
1488856390876,0,-11,-2.4169921875E-6,0,0,41,16771607,135182,13227,6682,3024,8057,2217,9995,Tag0,unknown
1488856390897,0,-12,-2.63671875E-6,0,0,41,16771607,135182,13227,6682,3024,8057,2217,9995,Tag0,unknown
1488856390898,0,-5,-1.0986328125E-6,0,0,41,16771607,135182,13227,6682,3024,8057,2217,9995,Tag0,unknown
1488856390898,0,275,6.04248046875E-5,0,0,41,16771607,135182,13227,6682,3024,8057,2217,9995,Tag0,unknown
1488856390898,0,282,6.1962890625E-5,0,0,41,16771607,135182,13227,6682,3024,8057,2217,9995,Tag0,unknown
1488856390898,0,269,5.9106445312499996E-5,0,0,41,16771607,135182,13227,6682,3024,8057,2217,9995,Tag0,unknown
1488856390899,0,-6,-1.318359375E-6,0,0,41,16771607,135182,13227,6682,3024,8057,2217,9995,Tag0,unknown
1488856390899,0,-14,-3.076171875E-6,0,0,41,16771607,135182,13227,6682,3024,8057,2217,9995,Tag0,unknown
1488856390899,0,260,5.712890625E-5,0,0,41,16771607,135182,13227,6682,3024,8057,2217,9995,Tag0,unknown
1488856390899,0,272,5.9765625000000004E-5,0,0,41,16771607,135182,13227,6682,3024,8057,2217,9995,Tag0,unknown
1488856390900,0,259,5.69091796875E-5,0,0,41,16771607,135182,13227,6682,3024,8057,2217,9995,Tag0,unknown
1488856390900,0,-20,-4.39453125E-6,0,0,41,16771607,135182,13227,6682,3024,8057,2217,9995,Tag0,unknown
1488856390900,0,-41,-9.008789062499999E-6,0,0,41,16771607,135182,13227,6682,3024,8057,2217,9995,Tag0,unknown
1488856390901,0,-52,-1.142578125E-5,0,0,41,16771607,135182,13227,6682,3024,8057,2217,9995,Tag0,unknown
1488856390901,0,-61,-1.34033203125E-5,0,0,41,16771607,135182,13227,6682,3024,8057,2217,9995,Tag0,unknown
1488856390902,0,-74,-1.6259765625E-5,0,0,41,16771607,135182,13227,6682,3024,8057,2217,9995,Tag0,unknown
1488856390902,0,-69,-1.51611328125E-5,0,0,41,16771607,135182,13227,6682,3024,8057,2217,9995,Tag0,unknown
1488856390902,0,-47,-1.0327148437500001E-5,0,0,41,16771607,135182,13227,6682,3024,8057,2217,9995,Tag0,unknown
1488856390902,0,-39,-8.5693359375E-6,0,0,41,16771607,135182,13227,6682,3024,8057,2217,9995,Tag0,unknown
1488856390903,0,-58,-1.2744140625E-5,0,0,41,16771607,135182,13227,6682,3024,8057,2217,9995,Tag0,unknown
1488856390918,0,-92,-2.021484375E-5,0,0,41,16771607,135182,13227,6682,3024,8057,2217,9995,Tag0,unknown
1488856390931,0,-117,-2.5708007812499998E-5,0,0,41,16771607,135182,13227,6682,3024,8057,2217,9995,Tag0,unknown
1488856390931,0,-121,-2.6586914062500003E-5,0,0,41,16771607,135182,13227,6682,3024,8057,2217,9995,Tag0,unknown
1488856390931,0,-125,-2.74658203125E-5,0,0,41,16771607,135182,13227,6682,3024,8057,2217,9995,Tag0,unknown
1488856390932,0,113,2.48291015625E-5,0,0,41,16771607,135182,13227,6682,3024,8057,2217,9995,Tag0,unknown
1488856390932,0,115,2.52685546875E-5,0,0,41,16771607,135182,13227,6682,3024,8057,2217,9995,Tag0,unknown
1488856390932,0,117,2.5708007812499998E-5,0,0,41,16771607,135182,13227,6682,3024,8057,2217,9995,Tag0,unknown
1488856390933,0,85,1.86767578125E-5,0,0,41,16771607,135182,13227,6682,3024,8057,2217,9995,Tag0,unknown
1488856390933,0,49,1.07666015625E-5,0,0,41,16771607,135182,13227,6682,3024,8057,2217,9995,Tag0,unknown
1488856390933,0,8,1.7578125E-6,0,0,41,16771607,135182,13227,6682,3024,8057,2217,9995,Tag0,unknown
1488856390934,0,-293,-6.43798828125E-5,0,0,41,16771607,135182,13227,6682,3024,8057,2217,9995,Tag0,unknown
1488856390934,0,-325,-7.14111328125E-5,0,0,41,16771607,135182,13227,6682,3024,8057,2217,9995,Tag0,unknown
1488856390934,0,-339,-7.448730468750001E-5,0,0,41,16771607,135182,13227,6682,3024,8057,2217,9995,Tag0,unknown
1488856390935,0,-330,-7.2509765625E-5,0,0,41,16771607,135182,13227,6682,3024,8057,2217,9995,Tag0,unknown
1488856390935,0,-300,-6.591796875E-5,0,0,41,16771607,135182,13227,6682,3024,8057,2217,9995,Tag0,unknown
1488856390935,0,-289,-6.35009765625E-5,0,0,41,16771607,135182,13227,6682,3024,8057,2217,9995,Tag0,unknown
1488856390935,0,-305,-6.70166015625E-5,0,0,41,16771607,135182,13227,6682,3024,8057,2217,9995,Tag0,unknown
1488856390936,0,-327,-7.18505859375E-5,0,0,41,16771607,135182,13227,6682,3024,8057,2217,9995,Tag0,unknown
1488856390936,0,-342,-7.5146484375E-5,0,0,41,16771607,135182,13227,6682,3024,8057,2217,9995,Tag0,unknown
1488856390936,0,-347,-7.62451171875E-5,0,0,41,16771607,135182,13227,6682,3024,8057,2217,9995,Tag0,unknown
1488856390958,0,-354,-7.778320312500001E-5,0,0,41,16771607,135182,13227,6682,3024,8057,2217,9995,Tag0,unknown
1488856390963,0,-372,-8.173828125E-5,0,0,41,16771607,135182,13227,6682,3024,8057,2217,9995,Tag0,unknown
1488856390963,0,-141,-3.09814453125E-5,0,0,41,16771607,135182,13227,6682,3024,8057,2217,9995,Tag0,unknown
1488856390963,0,-166,-3.6474609375E-5,0,0,41,16771607,135182,13227,6682,3024,8057,2217,9995,Tag0,unknown
1488856390964,0,-169,-3.7133789062499996E-5,0,0,41,16771607,135182,13227,6682,3024,8057,2217,9995,Tag0,unknown
1488856390964,0,-157,-3.44970703125E-5,0,0,41,16771607,135182,13227,6682,3024,8057,2217,9995,Tag0,unknown
1488856390964,0,-145,-3.18603515625E-5,0,0,41,16771607,135182,13227,6682,3024,8057,2217,9995,Tag0,unknown
1488856390964,0,-141,-3.09814453125E-5,0,0,41,16771607,135182,13227,6682,3024,8057,2217,9995,Tag0,unknown
1488856390965,0,-156,-3.427734375E-5,0,0,41,16771607,135182,13227,6682,3024,8057,2217,9995,Tag0,unknown
1488856390965,0,-183,-4.02099609375E-5,0,0,41,16771607,135182,13227,6682,3024,8057,2217,9995,Tag0,unknown
1488856390965,0,-213,-4.68017578125E-5,0,0,41,16771607,135182,13227,6682,3024,8057,2217,9995,Tag0,unknown
1488856390965,0,-237,-5.2075195312500004E-5,0,0,41,16771607,135182,13227,6682,3024,8057,2217,9995,Tag0,unknown
1488856390966,0,-254,-5.5810546875E-5,0,0,41,16771607,135182,13227,6682,3024,8057,2217,9995,Tag0,unknown
1488856390966,0,-524,-1.1513671875E-4,0,0,41,16771607,135182,13227,6682,3024,8057,2217,9995,Tag0,unknown
1488856390966,0,-525,-1.153564453125E-4,0,0,41,16771607,135182,13227,6682,3024,8057,2217,9995,Tag0,unknown
1488856390966,0,-518,-1.13818359375E-4,0,0,41,16771607,135182,13227,6682,3024,8057,2217,9995,Tag0,unknown
1488856390967,0,-242,-5.3173828125000005E-5,0,0,41,16771607,135182,13227,6682,3024,8057,2217,9995,Tag0,unknown
1488856390967,0,-218,-4.7900390625E-5,0,0,41,16771607,135182,13227,6682,3024,8057,2217,9995,Tag0,unknown
1488856390967,0,-197,-4.32861328125E-5,0,0,41,16771607,135182,13227,6682,3024,8057,2217,9995,Tag0,unknown
1488856390967,0,-187,-4.10888671875E-5,0,0,41,16771607,135182,13227,6682,3024,8057,2217,9995,Tag0,unknown
1488856390995,0,-196,-4.306640625E-5,0,0,41,16771607,135182,13227,6682,3024,8057,2217,9995,Tag0,unknown
1488856390995,0,-199,-4.3725585937499995E-5,0,0,41,16771607,135182,13227,6682,3024,8057,2217,9995,Tag0,unknown
1488856390996,0,-188,-4.1308593750000004E-5,0,0,41,16771607,135182,13227,6682,3024,8057,2217,9995,Tag0,unknown
1488856390996,0,-186,-4.0869140625E-5,0,0,41,16771607,135182,13227,6682,3024,8057,2217,9995,Tag0,unknown
1488856390996,0,-187,-4.10888671875E-5,0,0,41,16771607,135182,13227,6682,3024,8057,2217,9995,Tag0,unknown
1488856390996,0,-193,-4.2407226562500005E-5,0,0,41,16771607,135182,13227,6682,3024,8057,2217,9995,Tag0,unknown
1488856390997,0,-204,-4.4824218749999996E-5,0,0,41,16771607,135182,13227,6682,3024,8057,2217,9995,Tag0,unknown
1488856390997,0,-222,-4.8779296875E-5,0,0,41,16771607,135182,13227,6682,3024,8057,2217,9995,Tag0,unknown
1488856390997,0,-236,-5.185546875E-5,0,0,41,16771607,135182,13227,6682,3024,8057,2217,9995,Tag0,unknown
1488856390998,0,-244,-5.361328125E-5,0,0,41,16771607,135182,13227,6682,3024,8057,2217,9995,Tag0,unknown
1488856391011,0,-242,-5.3173828125000005E-5,0,0,41,16771607,135182,13227,6682,3024,8057,2217,9995,Tag0,unknown
1488856391012,0,-231,-5.07568359375E-5,0,0,41,16771607,135182,13227,6682,3024,8057,2217,9995,Tag0,unknown
1488856391012,0,-205,-4.50439453125E-5,0,0,41,16771607,135182,13227,6682,3024,8057,2217,9995,Tag0,unknown
1488856391012,0,-182,-3.9990234375E-5,0,0,41,16771607,135182,13227,6682,3024,8057,2217,9995,Tag0,unknown
1488856391012,0,-172,-3.7792968750000005E-5,0,0,41,16771607,135182,13227,6682,3024,8057,2217,9995,Tag0,unknown
1488856391013,0,-179,-3.93310546875E-5,0,0,41,16771607,135182,13227,6682,3024,8057,2217,9995,Tag0,unknown
1488856391013,0,-174,-3.8232421875E-5,0,0,41,16771607,135182,13227,6682,3024,8057,2217,9995,Tag0,unknown
1488856391013,0,-170,-3.7353515625E-5,0,0,41,16771607,135182,13227,6682,3024,8057,2217,9995,Tag0,unknown
1488856391013,0,-162,-3.5595703125E-5,0,0,41,16771607,135182,13227,6682,3024,8057,2217,9995,Tag0,unknown
1488856391014,0,-152,-3.33984375E-5,0,0,41,16771607,135182,13227,6682,3024,8057,2217,9995,Tag0,unknown
1488856391037,0,-150,-3.2958984375E-5,0,0,41,16771607,135182,13227,6682,3024,8057,2217,9995,Tag0,unknown
1488856391037,0,-138,-3.0322265625E-5,0,0,41,16771607,135182,13227,6682,3024,8057,2217,9995,Tag0,unknown
1488856391037,0,-378,-8.3056640625E-5,0,0,41,16771607,135182,13227,6682,3024,8057,2217,9995,Tag0,unknown
1488856391038,0,-372,-8.173828125E-5,0,0,41,16771607,135182,13227,6682,3024,8057,2217,9995,Tag0,unknown
1488856391038,0,-375,-8.23974609375E-5,0,0,41,16771607,135182,13227,6682,3024,8057,2217,9995,Tag0,unknown
1488856391038,0,-380,-8.349609375E-5,0,0,41,16771607,135182,13227,6682,3024,8057,2217,9995,Tag0,unknown
1488856391045,0,-377,-8.28369140625E-5,0,0,41,16771607,135182,13227,6682,3024,8057,2217,9995,Tag0,unknown
1488856391045,0,-375,-8.23974609375E-5,0,0,41,16771607,135182,13227,6682,3024,8057,2217,9995,Tag0,unknown
1488856391045,0,-376,-8.261718750000001E-5,0,0,41,16771607,135182,13227,6682,3024,8057,2217,9995,Tag0,unknown
1488856391046,0,-369,-8.10791015625E-5,0,0,41,16771607,135182,13227,6682,3024,8057,2217,9995,Tag0,unknown
1488856391046,0,-340,-7.470703125E-5,0,0,41,16771607,135182,13227,6682,3024,8057,2217,9995,Tag0,unknown
1488856391046,0,-306,-6.723632812500001E-5,0,0,41,16771607,135182,13227,6682,3024,8057,2217,9995,Tag0,unknown
1488856391046,0,-293,-6.43798828125E-5,0,0,41,16771607,135182,13227,6682,3024,8057,2217,9995,Tag0,unknown
1488856391047,0,-296,-6.50390625E-5,0,0,41,16771607,135182,13227,6682,3024,8057,2217,9995,Tag0,unknown
1488856391047,0,-290,-6.3720703125E-5,0,0,41,16771607,135182,13227,6682,3024,8057,2217,9995,Tag0,unknown
1488856391047,0,-269,-5.9106445312499996E-5,0,0,41,16771607,135182,13227,6682,3024,8057,2217,9995,Tag0,unknown
1488856391047,0,-257,-5.64697265625E-5,0,0,41,16771607,135182,13227,6682,3024,8057,2217,9995,Tag0,unknown
1488856391048,0,-275,-6.04248046875E-5,0,0,41,16771607,135182,13227,6682,3024,8057,2217,9995,Tag0,unknown
1488856391048,0,-305,-6.70166015625E-5,0,0,41,16771607,135182,13227,6682,3024,8057,2217,9995,Tag0,unknown
1488856391048,0,-309,-6.78955078125E-5,0,0,41,16771607,135182,13227,6682,3024,8057,2217,9995,Tag0,unknown
1488856391074,0,-297,-6.525878906250001E-5,0,0,41,16771607,135182,13227,6682,3024,8057,2217,9995,Tag0,unknown
1488856391074,0,-280,-6.15234375E-5,0,0,41,16771607,135182,13227,6682,3024,8057,2217,9995,Tag0,unknown
1488856391077,0,-274,-6.0205078124999997E-5,0,0,41,16771607,135182,13227,6682,3024,8057,2217,9995,Tag0,unknown
1488856391077,0,-273,-5.998535156250001E-5,0,0,41,16771607,135182,13227,6682,3024,8057,2217,9995,Tag0,unknown
1488856391078,0,-264,-5.80078125E-5,0,0,41,16771607,135182,13227,6682,3024,8057,2217,9995,Tag0,unknown
1488856391078,0,16,3.515625E-6,0,0,41,16771607,135182,13227,6682,3024,8057,2217,9995,Tag0,unknown
1488856391078,0,41,9.008789062499999E-6,0,0,49,16771607,135182,13227,6682,3024,8057,2217,9995,Tag0,unknown
1488856391079,0,57,1.2524414062500001E-5,0,0,49,16771607,135182,13227,6682,3024,8057,2217,9995,Tag0,unknown
1488856391079,0,66,1.4501953125E-5,0,0,49,16771607,135182,13227,6682,3024,8057,2217,9995,Tag0,unknown
1488856391079,0,48,1.0546875E-5,0,0,49,16771607,135182,13227,6682,3024,8057,2217,9995,Tag0,unknown
1488856391085,0,11,2.4169921875E-6,0,0,49,16771607,135182,13227,6682,3024,8057,2217,9995,Tag0,unknown
1488856391085,0,17,3.7353515625000003E-6,0,0,49,16771607,135182,13227,6682,3024,8057,2217,9995,Tag0,unknown
1488856391085,0,60,1.318359375E-5,0,0,49,16771607,135182,13227,6682,3024,8057,2217,9995,Tag0,unknown
1488856391085,0,93,2.04345703125E-5,0,0,49,16771607,135182,13227,6682,3024,8057,2217,9995,Tag0,unknown
1488856391086,0,96,2.109375E-5,0,0,49,16771607,135182,13227,6682,3024,8057,2217,9995,Tag0,unknown
1488856391086,0,90,1.9775390625E-5,0,0,49,16771607,135182,13227,6682,3024,8057,2217,9995,Tag0,unknown
1488856391086,0,82,1.8017578124999998E-5,0,0,49,16771607,135182,13227,6682,3024,8057,2217,9995,Tag0,unknown
1488856391086,0,66,1.4501953125E-5,0,0,49,16771607,135182,13227,6682,3024,8057,2217,9995,Tag0,unknown
1488856391087,0,48,1.0546875E-5,0,0,49,16771607,135182,13227,6682,3024,8057,2217,9995,Tag0,unknown
1488856391087,0,28,6.15234375E-6,0,0,49,16771607,135182,13227,6682,3024,8057,2217,9995,Tag0,unknown
1488856391109,0,25,5.4931640625E-6,0,0,49,16771607,135182,13227,6682,3024,8057,2217,9995,Tag0,unknown
1488856391112,0,39,8.5693359375E-6,0,0,49,16771607,135182,13227,6682,3024,8057,2217,9995,Tag0,unknown
1488856391112,0,60,1.318359375E-5,0,0,49,16771607,135182,13227,6682,3024,8057,2217,9995,Tag0,unknown
1488856391112,0,69,1.51611328125E-5,0,0,49,16771607,135182,13227,6682,3024,8057,2217,9995,Tag0,unknown
1488856391113,0,87,1.91162109375E-5,0,0,49,16771607,135182,13227,6682,3024,8057,2217,9995,Tag0,unknown
1488856391113,0,116,2.548828125E-5,0,0,49,16771607,135182,13227,6682,3024,8057,2217,9995,Tag0,unknown
1488856391113,0,-125,-2.74658203125E-5,0,0,49,16771607,135182,13227,6682,3024,8057,2217,9995,Tag0,unknown
1488856391115,0,-127,-2.79052734375E-5,0,0,49,16771607,135182,13227,6682,3024,8057,2217,9995,Tag0,unknown
1488856391115,0,122,2.6806640625E-5,0,0,49,16771607,135182,13227,6682,3024,8057,2217,9995,Tag0,unknown
1488856391115,0,107,2.35107421875E-5,0,0,49,16771607,135182,13227,6682,3024,8057,2217,9995,Tag0,unknown
1488856391129,0,88,1.93359375E-5,0,0,49,16771607,135182,13227,6682,3024,8057,2217,9995,Tag0,unknown
1488856391129,0,87,1.91162109375E-5,0,0,49,16771607,135182,13227,6682,3024,8057,2217,9995,Tag0,unknown
1488856391129,0,101,2.2192382812500002E-5,0,0,49,16771607,135182,13227,6682,3024,8057,2217,9995,Tag0,unknown
1488856391129,0,113,2.48291015625E-5,0,0,49,16771607,135182,13227,6682,3024,8057,2217,9995,Tag0,unknown
1488856391130,0,101,2.2192382812500002E-5,0,0,49,16771607,135182,13227,6682,3024,8057,2217,9995,Tag0,unknown
1488856391130,0,84,1.8457031250000004E-5,0,0,49,16771607,135182,13227,6682,3024,8057,2217,9995,Tag0,unknown
1488856391130,0,90,1.9775390625E-5,0,0,49,16771607,135182,13227,6682,3024,8057,2217,9995,Tag0,unknown
1488856391130,0,113,2.48291015625E-5,0,0,49,16771607,135182,13227,6682,3024,8057,2217,9995,Tag0,unknown
1488856391131,0,107,2.35107421875E-5,0,0,49,16771607,135182,13227,6682,3024,8057,2217,9995,Tag0,unknown
1488856391131,0,81,1.77978515625E-5,0,0,49,16771607,135182,13227,6682,3024,8057,2217,9995,Tag0,unknown
1488856391152,0,52,1.142578125E-5,0,0,49,16771607,135182,13227,6682,3024,8057,2217,9995,Tag0,unknown
1488856391164,0,40,8.7890625E-6,0,0,49,16771607,135182,13227,6682,3024,8057,2217,9995,Tag0,unknown
1488856391164,0,43,9.448242187500001E-6,0,0,49,16771607,135182,13227,6682,3024,8057,2217,9995,Tag0,unknown
1488856391164,0,50,1.0986328125E-5,0,0,49,16771607,135182,13227,6682,3024,8057,2217,9995,Tag0,unknown
1488856391165,0,51,1.1206054687499999E-5,0,0,49,16771607,135182,13227,6682,3024,8057,2217,9995,Tag0,unknown
1488856391166,0,42,9.228515625000002E-6,0,0,49,16771607,135182,13227,6682,3024,8057,2217,9995,Tag0,unknown
1488856391166,0,39,8.5693359375E-6,0,0,49,16771607,135182,13227,6682,3024,8057,2217,9995,Tag0,unknown
1488856391166,0,29,6.3720703125E-6,0,0,49,16771607,135182,13227,6682,3024,8057,2217,9995,Tag0,unknown
1488856391167,0,18,3.955078125E-6,0,0,49,16771607,135182,13227,6682,3024,8057,2217,9995,Tag0,unknown
1488856391167,0,-265,-5.82275390625E-5,0,0,49,16771607,135182,13227,6682,3024,8057,2217,9995,Tag0,unknown
1488856391167,0,-301,-6.613769531250001E-5,0,0,49,16771607,135182,13227,6682,3024,8057,2217,9995,Tag0,unknown
1488856391168,0,-313,-6.87744140625E-5,0,0,49,16771607,135182,13227,6682,3024,8057,2217,9995,Tag0,unknown
1488856391168,0,-297,-6.525878906250001E-5,0,0,49,16771607,135182,13227,6682,3024,8057,2217,9995,Tag0,unknown
1488856391168,0,-266,-5.8447265625E-5,0,0,49,16771607,135182,13227,6682,3024,8057,2217,9995,Tag0,unknown
1488856391168,0,-259,-5.69091796875E-5,0,0,49,16771607,135182,13227,6682,3024,8057,2217,9995,Tag0,unknown
1488856391169,0,1,2.197265625E-7,0,0,49,16771607,135182,13227,6682,3024,8057,2217,9995,Tag0,unknown
1488856391169,0,5,1.0986328125E-6,0,0,49,16771607,135182,13227,6682,3024,8057,2217,9995,Tag0,unknown
1488856391169,0,5,1.0986328125E-6,0,0,49,16771607,135182,13227,6682,3024,8057,2217,9995,Tag0,unknown
1488856391169,0,4,8.7890625E-7,0,0,49,16771607,135182,13227,6682,3024,8057,2217,9995,Tag0,unknown
1488856391169,0,0,0.0,0,0,49,16771607,135182,13227,6682,3024,8057,2217,9995,Tag0,unknown
1488856391190,0,6,1.318359375E-6,0,0,49,16771607,135182,13227,6682,3024,8057,2217,9995,Tag0,unknown
1488856391190,0,18,3.955078125E-6,0,0,49,16771607,135182,13227,6682,3024,8057,2217,9995,Tag0,unknown
1488856391191,0,21,4.614257812500001E-6,0,0,49,16771607,135182,13227,6682,3024,8057,2217,9995,Tag0,unknown
1488856391191,0,8,1.7578125E-6,0,0,49,16771607,135182,13227,6682,3024,8057,2217,9995,Tag0,unknown
1488856391191,0,-283,-6.218261718750001E-5,0,0,49,16771607,135182,13227,6682,3024,8057,2217,9995,Tag0,unknown
1488856391192,0,-326,-7.163085937500001E-5,0,0,49,16771607,135182,13227,6682,3024,8057,2217,9995,Tag0,unknown
1488856391192,0,-337,-7.40478515625E-5,0,0,49,16771607,135182,13227,6682,3024,8057,2217,9995,Tag0,unknown
1488856391192,0,-312,-6.85546875E-5,0,0,49,16771607,135182,13227,6682,3024,8057,2217,9995,Tag0,unknown
1488856391193,0,-289,-6.35009765625E-5,0,0,49,16771607,135182,13227,6682,3024,8057,2217,9995,Tag0,unknown
1488856391193,0,-273,-5.998535156250001E-5,0,0,49,16771607,135182,13227,6682,3024,8057,2217,9995,Tag0,unknown
1488856391198,0,-277,-6.0864257812500005E-5,0,0,49,16771607,135182,13227,6682,3024,8057,2217,9995,Tag0,unknown
1488856391199,0,-295,-6.48193359375E-5,0,0,49,16771607,135182,13227,6682,3024,8057,2217,9995,Tag0,unknown
1488856391199,0,-311,-6.833496093750001E-5,0,0,49,16771607,135182,13227,6682,3024,8057,2217,9995,Tag0,unknown
1488856391199,0,-307,-6.74560546875E-5,0,0,49,16771607,135182,13227,6682,3024,8057,2217,9995,Tag0,unknown
1488856391199,0,-283,-6.218261718750001E-5,0,0,49,16771607,135182,13227,6682,3024,8057,2217,9995,Tag0,unknown
1488856391200,0,0,0.0,0,0,49,16771607,135182,13227,6682,3024,8057,2217,9995,Tag0,unknown
1488856391200,0,21,4.614257812500001E-6,0,0,49,16771607,135182,13227,6682,3024,8057,2217,9995,Tag0,unknown
1488856391200,0,19,4.1748046875E-6,0,0,49,16771607,135182,13227,6682,3024,8057,2217,9995,Tag0,unknown
1488856391200,0,-260,-5.712890625E-5,0,0,49,16771607,135182,13227,6682,3024,8057,2217,9995,Tag0,unknown
1488856391201,0,0,0.0,0,0,49,16771607,135182,13227,6682,3024,8057,2217,9995,Tag0,unknown
1488856391226,0,26,5.712890625E-6,0,0,49,16771607,135182,13227,6682,3024,8057,2217,9995,Tag0,unknown
1488856391231,0,48,1.0546875E-5,0,0,49,16771607,135182,13227,6682,3024,8057,2217,9995,Tag0,unknown
1488856391231,0,52,1.142578125E-5,0,0,49,16771607,135182,13227,6682,3024,8057,2217,9995,Tag0,unknown
1488856391232,0,21,4.614257812500001E-6,0,0,49,16771607,135182,13227,6682,3024,8057,2217,9995,Tag0,unknown
1488856391233,0,-269,-5.9106445312499996E-5,0,0,49,16771607,135182,13227,6682,3024,8057,2217,9995,Tag0,unknown
1488856391233,0,-275,-6.04248046875E-5,0,0,49,16771607,135182,13227,6682,3024,8057,2217,9995,Tag0,unknown
1488856391234,0,3,6.591796875E-7,0,0,49,16771607,135182,13227,6682,3024,8057,2217,9995,Tag0,unknown
1488856391234,0,12,2.63671875E-6,0,0,49,16771607,135182,13227,6682,3024,8057,2217,9995,Tag0,unknown
1488856391235,0,6,1.318359375E-6,0,0,49,16771607,135182,13227,6682,3024,8057,2217,9995,Tag0,unknown
1488856391237,0,-262,-5.7568359375E-5,0,0,49,16771607,135182,13227,6682,3024,8057,2217,9995,Tag0,unknown
1488856391248,0,-265,-5.82275390625E-5,0,0,49,16771607,135182,13227,6682,3024,8057,2217,9995,Tag0,unknown
1488856391249,0,8,1.7578125E-6,0,0,49,16771607,135182,13227,6682,3024,8057,2217,9995,Tag0,unknown
1488856391249,0,28,6.15234375E-6,0,0,49,16771607,135182,13227,6682,3024,8057,2217,9995,Tag0,unknown
1488856391249,0,21,4.614257812500001E-6,0,0,49,16771607,135182,13227,6682,3024,8057,2217,9995,Tag0,unknown
1488856391250,0,1,2.197265625E-7,0,0,49,16771607,135182,13227,6682,3024,8057,2217,9995,Tag0,unknown
1488856391250,0,-261,-5.73486328125E-5,0,0,49,16771607,135182,13227,6682,3024,8057,2217,9995,Tag0,unknown
1488856391250,0,-263,-5.7788085937500005E-5,0,0,49,16771607,135182,13227,6682,3024,8057,2217,9995,Tag0,unknown
1488856391250,0,-277,-6.0864257812500005E-5,0,0,49,16771607,135182,13227,6682,3024,8057,2217,9995,Tag0,unknown
1488856391251,0,-285,-6.26220703125E-5,0,0,49,16771607,135182,13227,6682,3024,8057,2217,9995,Tag0,unknown
1488856391251,0,-280,-6.15234375E-5,0,0,49,16771607,135182,13227,6682,3024,8057,2217,9995,Tag0,unknown
1488856391269,0,-273,-5.998535156250001E-5,0,0,49,16771607,135182,13227,6682,3024,8057,2217,9995,Tag0,unknown
1488856391269,0,1,2.197265625E-7,0,0,49,16771607,135182,13227,6682,3024,8057,2217,9995,Tag0,unknown
1488856391281,0,49,1.07666015625E-5,0,0,49,16771607,135182,13227,6682,3024,8057,2217,9995,Tag0,unknown
1488856391282,0,82,1.8017578124999998E-5,0,0,49,16771607,135182,13227,6682,3024,8057,2217,9995,Tag0,unknown
1488856391282,0,70,1.5380859375E-5,0,0,49,16771607,135182,13227,6682,3024,8057,2217,9995,Tag0,unknown
1488856391282,0,49,1.07666015625E-5,0,0,49,16771607,135182,13227,6682,3024,8057,2217,9995,Tag0,unknown
1488856391282,0,26,5.712890625E-6,0,0,49,16771607,135182,13227,6682,3024,8057,2217,9995,Tag0,unknown
1488856391283,0,5,1.0986328125E-6,0,0,49,16771607,135182,13227,6682,3024,8057,2217,9995,Tag0,unknown
1488856391283,0,4,8.7890625E-7,0,0,49,16771607,135182,13227,6682,3024,8057,2217,9995,Tag0,unknown
1488856391283,0,12,2.63671875E-6,0,0,49,16771607,135182,13227,6682,3024,8057,2217,9995,Tag0,unknown
1488856391283,0,17,3.7353515625000003E-6,0,0,49,16771607,135182,13227,6682,3024,8057,2217,9995,Tag0,unknown
1488856391283,0,28,6.15234375E-6,0,0,49,16771607,135182,13227,6682,3024,8057,2217,9995,Tag0,unknown
1488856391284,0,50,1.0986328125E-5,0,0,49,16771607,135182,13227,6682,3024,8057,2217,9995,Tag0,unknown
1488856391284,0,70,1.5380859375E-5,0,0,49,16771607,135182,13227,6682,3024,8057,2217,9995,Tag0,unknown
1488856391284,0,92,2.021484375E-5,0,0,49,16771607,135182,13227,6682,3024,8057,2217,9995,Tag0,unknown
1488856391284,0,102,2.2412109374999998E-5,0,0,49,16771607,135182,13227,6682,3024,8057,2217,9995,Tag0,unknown
1488856391285,0,107,2.35107421875E-5,0,0,49,16771607,135182,13227,6682,3024,8057,2217,9995,Tag0,unknown
1488856391285,0,-124,-2.724609375E-5,0,0,49,16771607,135182,13227,6682,3024,8057,2217,9995,Tag0,unknown
1488856391285,0,-112,-2.4609375E-5,0,0,49,16771607,135182,13227,6682,3024,8057,2217,9995,Tag0,unknown
1488856391286,0,107,2.35107421875E-5,0,0,49,16771607,135182,13227,6682,3024,8057,2217,9995,Tag0,unknown
1488856391307,0,75,1.64794921875E-5,0,0,49,16771607,135182,13227,6682,3024,8057,2217,9995,Tag0,unknown
1488856391307,0,89,1.95556640625E-5,0,0,49,16771607,135182,13227,6682,3024,8057,2217,9995,Tag0,unknown
1488856391307,0,119,2.6147460937500004E-5,0,0,49,16771607,135182,13227,6682,3024,8057,2217,9995,Tag0,unknown
1488856391307,0,109,2.39501953125E-5,0,0,49,16771607,135182,13227,6682,3024,8057,2217,9995,Tag0,unknown
1488856391309,0,86,1.8896484375000003E-5,0,0,49,16771607,135182,13227,6682,3024,8057,2217,9995,Tag0,unknown
1488856391309,0,73,1.6040039062500002E-5,0,0,49,16771607,135182,13227,6682,3024,8057,2217,9995,Tag0,unknown
1488856391310,0,75,1.64794921875E-5,0,0,49,16771607,135182,13227,6682,3024,8057,2217,9995,Tag0,unknown
1488856391310,0,96,2.109375E-5,0,0,49,16771607,135182,13227,6682,3024,8057,2217,9995,Tag0,unknown
1488856391310,0,107,2.35107421875E-5,0,0,49,16771607,135182,13227,6682,3024,8057,2217,9995,Tag0,unknown
1488856391311,0,105,2.30712890625E-5,0,0,49,16771607,135182,13227,6682,3024,8057,2217,9995,Tag0,unknown
1488856391313,0,112,2.4609375E-5,0,0,49,16771607,135182,13227,6682,3024,8057,2217,9995,Tag0,unknown
1488856391313,0,114,2.5048828125000003E-5,0,0,49,16771607,135182,13227,6682,3024,8057,2217,9995,Tag0,unknown
1488856391314,0,113,2.48291015625E-5,0,0,49,16771607,135182,13227,6682,3024,8057,2217,9995,Tag0,unknown
1488856391314,0,121,2.6586914062500003E-5,0,0,49,16771607,135182,13227,6682,3024,8057,2217,9995,Tag0,unknown
1488856391314,0,-119,-2.6147460937500004E-5,0,0,49,16771607,135182,13227,6682,3024,8057,2217,9995,Tag0,unknown
1488856391314,0,-124,-2.724609375E-5,0,0,49,16771607,135182,13227,6682,3024,8057,2217,9995,Tag0,unknown
1488856391315,0,124,2.724609375E-5,0,0,49,16771607,135182,13227,6682,3024,8057,2217,9995,Tag0,unknown
1488856391315,0,-122,-2.6806640625E-5,0,0,49,16771607,135182,13227,6682,3024,8057,2217,9995,Tag0,unknown
1488856391316,0,-122,-2.6806640625E-5,0,0,49,16771607,135182,13227,6682,3024,8057,2217,9995,Tag0,unknown
1488856391316,0,113,2.48291015625E-5,0,0,49,16771607,135182,13227,6682,3024,8057,2217,9995,Tag0,unknown
1488856391345,0,86,1.8896484375000003E-5,0,0,49,16771607,135182,13227,6682,3024,8057,2217,9995,Tag0,unknown
1488856391346,0,84,1.8457031250000004E-5,0,0,49,16771607,135182,13227,6682,3024,8057,2217,9995,Tag0,unknown
1488856391346,0,100,2.197265625E-5,0,0,49,16771607,135182,13227,6682,3024,8057,2217,9995,Tag0,unknown
1488856391346,0,117,2.5708007812499998E-5,0,0,49,16771607,135182,13227,6682,3024,8057,2217,9995,Tag0,unknown
1488856391347,0,123,2.70263671875E-5,0,0,49,16771607,135182,13227,6682,3024,8057,2217,9995,Tag0,unknown
1488856391347,0,104,2.28515625E-5,0,0,49,16771607,135182,13227,6682,3024,8057,2217,9995,Tag0,unknown
1488856391352,0,77,1.69189453125E-5,0,0,49,16771607,135182,13227,6682,3024,8057,2217,9995,Tag0,unknown
1488856391352,0,60,1.318359375E-5,0,0,49,16771607,135182,13227,6682,3024,8057,2217,9995,Tag0,unknown
1488856391352,0,59,1.29638671875E-5,0,0,49,16771607,135182,13227,6682,3024,8057,2217,9995,Tag0,unknown
1488856391353,0,49,1.07666015625E-5,0,0,49,16771607,135182,13227,6682,3024,8057,2217,9995,Tag0,unknown
1488856391365,0,44,9.66796875E-6,0,0,49,16771607,135182,13227,6682,3024,8057,2217,9995,Tag0,unknown
1488856391365,0,85,1.86767578125E-5,0,0,49,16771607,135182,13227,6682,3024,8057,2217,9995,Tag0,unknown
1488856391365,0,-128,-2.8125E-5,0,0,49,16771607,135182,13227,6682,3024,8057,2217,9995,Tag0,unknown
1488856391366,0,97,2.13134765625E-5,0,0,49,16771607,135182,13227,6682,3024,8057,2217,9995,Tag0,unknown
1488856391366,0,20,4.39453125E-6,0,0,49,16771607,135182,13227,6682,3024,8057,2217,9995,Tag0,unknown
1488856391366,0,-265,-5.82275390625E-5,0,0,49,16771607,135182,13227,6682,3024,8057,2217,9995,Tag0,unknown
1488856391367,0,27,5.9326171875000005E-6,0,0,49,16771607,135182,13227,6682,3024,8057,2217,9995,Tag0,unknown
1488856391368,0,82,1.8017578124999998E-5,0,0,49,16771607,135182,13227,6682,3024,8057,2217,9995,Tag0,unknown
1488856391368,0,88,1.93359375E-5,0,0,49,16771607,135182,13227,6682,3024,8057,2217,9995,Tag0,unknown
1488856391368,0,44,9.66796875E-6,0,0,49,16771607,135182,13227,6682,3024,8057,2217,9995,Tag0,unknown
1488856391391,0,7,1.5380859375E-6,0,0,49,16771607,135182,13227,6682,3024,8057,2217,9995,Tag0,unknown
1488856391396,0,7,1.5380859375E-6,0,0,49,16771607,135182,13227,6682,3024,8057,2217,9995,Tag0,unknown
1488856391396,0,19,4.1748046875E-6,0,0,49,16771607,135182,13227,6682,3024,8057,2217,9995,Tag0,unknown
1488856391397,0,10,2.197265625E-6,0,0,49,16771607,135182,13227,6682,3024,8057,2217,9995,Tag0,unknown
1488856391397,0,-257,-5.64697265625E-5,0,0,49,16771607,135182,13227,6682,3024,8057,2217,9995,Tag0,unknown
1488856391397,0,-269,-5.9106445312499996E-5,0,0,49,16771607,135182,13227,6682,3024,8057,2217,9995,Tag0,unknown
1488856391398,0,-278,-6.108398437500001E-5,0,0,49,16771607,135182,13227,6682,3024,8057,2217,9995,Tag0,unknown
1488856391398,0,-269,-5.9106445312499996E-5,0,0,49,16771607,135182,13227,6682,3024,8057,2217,9995,Tag0,unknown
1488856391398,0,-260,-5.712890625E-5,0,0,49,16771607,135182,13227,6682,3024,8057,2217,9995,Tag0,unknown
1488856391398,0,-257,-5.64697265625E-5,0,0,49,16771607,135182,13227,6682,3024,8057,2217,9995,Tag0,unknown
1488856391399,0,5,1.0986328125E-6,0,0,49,16771607,135182,13227,6682,3024,8057,2217,9995,Tag0,unknown
1488856391399,0,25,5.4931640625E-6,0,0,49,16771607,135182,13227,6682,3024,8057,2217,9995,Tag0,unknown
1488856391399,0,50,1.0986328125E-5,0,0,49,16771607,135182,13227,6682,3024,8057,2217,9995,Tag0,unknown
1488856391399,0,70,1.5380859375E-5,0,0,49,16771607,135182,13227,6682,3024,8057,2217,9995,Tag0,unknown
1488856391400,0,74,1.6259765625E-5,0,0,49,16771607,135182,13227,6682,3024,8057,2217,9995,Tag0,unknown
1488856391400,0,43,9.448242187500001E-6,0,0,49,16771607,135182,13227,6682,3024,8057,2217,9995,Tag0,unknown
1488856391400,0,8,1.7578125E-6,0,0,49,16771607,135182,13227,6682,3024,8057,2217,9995,Tag0,unknown
1488856391400,0,6,1.318359375E-6,0,0,49,16771607,135182,13227,6682,3024,8057,2217,9995,Tag0,unknown
1488856391401,0,37,8.1298828125E-6,0,0,49,16771607,135182,13227,6682,3024,8057,2217,9995,Tag0,unknown
1488856391401,0,66,1.4501953125E-5,0,0,49,16771607,135182,13227,6682,3024,8057,2217,9995,Tag0,unknown
1488856391428,0,80,1.7578125E-5,0,0,49,16771607,135182,13227,6682,3024,8057,2217,9995,Tag0,unknown
1488856391428,0,75,1.64794921875E-5,0,0,49,16771607,135182,13227,6682,3024,8057,2217,9995,Tag0,unknown
1488856391428,0,39,8.5693359375E-6,0,0,49,16771607,135182,13227,6682,3024,8057,2217,9995,Tag0,unknown
1488856391429,0,-260,-5.712890625E-5,0,0,49,16771607,135182,13227,6682,3024,8057,2217,9995,Tag0,unknown
1488856391429,0,-262,-5.7568359375E-5,0,0,49,16771607,135182,13227,6682,3024,8057,2217,9995,Tag0,unknown
1488856391447,0,17,3.7353515625000003E-6,0,0,49,16771607,135182,13227,6682,3024,8057,2217,9995,Tag0,unknown
1488856391447,0,-260,-5.712890625E-5,0,0,49,16771607,135182,13227,6682,3024,8057,2217,9995,Tag0,unknown
1488856391448,0,-314,-6.8994140625E-5,0,0,49,16771607,135182,13227,6682,3024,8057,2217,9995,Tag0,unknown
1488856391448,0,-330,-7.2509765625E-5,0,0,49,16771607,135182,13227,6682,3024,8057,2217,9995,Tag0,unknown
1488856391448,0,-310,-6.8115234375E-5,0,0,49,16771607,135182,13227,6682,3024,8057,2217,9995,Tag0,unknown
1488856391448,0,-292,-6.416015625000001E-5,0,0,49,16771607,135182,13227,6682,3024,8057,2217,9995,Tag0,unknown
1488856391449,0,-264,-5.80078125E-5,0,0,49,16771607,135182,13227,6682,3024,8057,2217,9995,Tag0,unknown
1488856391449,0,24,5.2734375E-6,0,0,49,16771607,135182,13227,6682,3024,8057,2217,9995,Tag0,unknown
1488856391449,0,8,1.7578125E-6,0,0,49,16771607,135182,13227,6682,3024,8057,2217,9995,Tag0,unknown
1488856391449,0,-280,-6.15234375E-5,0,0,49,16771607,135182,13227,6682,3024,8057,2217,9995,Tag0,unknown
1488856391450,0,-294,-6.4599609375E-5,0,0,49,16771607,135182,13227,6682,3024,8057,2217,9995,Tag0,unknown
1488856391450,0,-289,-6.35009765625E-5,0,0,49,16771607,135182,13227,6682,3024,8057,2217,9995,Tag0,unknown
1488856391450,0,-284,-6.240234375E-5,0,0,49,16771607,135182,13227,6682,3024,8057,2217,9995,Tag0,unknown
1488856391450,0,-300,-6.591796875E-5,0,0,49,16771607,135182,13227,6682,3024,8057,2217,9995,Tag0,unknown
1488856391451,0,-309,-6.78955078125E-5,0,0,49,16771607,135182,13227,6682,3024,8057,2217,9995,Tag0,unknown
1488856391495,0,-316,-6.943359375000001E-5,0,0,49,16771607,135182,13227,6682,3024,8057,2217,9995,Tag0,unknown
1488856391495,0,-333,-7.316894531249999E-5,0,0,49,16771607,135182,13227,6682,3024,8057,2217,9995,Tag0,unknown
1488856391495,0,-334,-7.338867187500001E-5,0,0,49,16771607,135182,13227,6682,3024,8057,2217,9995,Tag0,unknown
1488856391516,0,-339,-7.448730468750001E-5,0,0,49,16771607,135182,13227,6682,3024,8057,2217,9995,Tag0,unknown
1488856391516,0,-332,-7.294921875E-5,0,0,49,16771607,135182,13227,6682,3024,8057,2217,9995,Tag0,unknown
1488856391516,0,-295,-6.48193359375E-5,0,0,49,16771607,135182,13227,6682,3024,8057,2217,9995,Tag0,unknown
1488856391516,0,-259,-5.69091796875E-5,0,0,49,16771607,135182,13227,6682,3024,8057,2217,9995,Tag0,unknown
1488856391517,0,-268,-5.8886718750000006E-5,0,0,49,16771607,135182,13227,6682,3024,8057,2217,9995,Tag0,unknown
1488856391517,0,-297,-6.525878906250001E-5,0,0,49,16771607,135182,13227,6682,3024,8057,2217,9995,Tag0,unknown
1488856391517,0,-327,-7.18505859375E-5,0,0,49,16771607,135182,13227,6682,3024,8057,2217,9995,Tag0,unknown
1488856391517,0,-345,-7.58056640625E-5,0,0,49,16771607,135182,13227,6682,3024,8057,2217,9995,Tag0,unknown
1488856391518,0,-330,-7.2509765625E-5,0,0,49,16771607,135182,13227,6682,3024,8057,2217,9995,Tag0,unknown
1488856391518,0,-306,-6.723632812500001E-5,0,0,49,16771607,135182,13227,6682,3024,8057,2217,9995,Tag0,unknown
1488856391518,0,-297,-6.525878906250001E-5,0,0,49,16771607,135182,13227,6682,3024,8057,2217,9995,Tag0,unknown
1488856391519,0,-291,-6.39404296875E-5,0,0,49,16771607,135182,13227,6682,3024,8057,2217,9995,Tag0,unknown
1488856391519,0,-270,-5.9326171875E-5,0,0,49,16771607,135182,13227,6682,3024,8057,2217,9995,Tag0,unknown
1488856391519,0,-273,-5.998535156250001E-5,0,0,49,16771607,135182,13227,6682,3024,8057,2217,9995,Tag0,unknown
1488856391519,0,-311,-6.833496093750001E-5,0,0,49,16771607,135182,13227,6682,3024,8057,2217,9995,Tag0,unknown
1488856391520,0,-313,-6.87744140625E-5,0,0,49,16771607,135182,13227,6682,3024,8057,2217,9995,Tag0,unknown
1488856391520,0,-269,-5.9106445312499996E-5,0,0,49,16771607,135182,13227,6682,3024,8057,2217,9995,Tag0,unknown
1488856391520,0,-258,-5.6689453125000004E-5,0,0,49,16771607,135182,13227,6682,3024,8057,2217,9995,Tag0,unknown
1488856391521,0,-282,-6.1962890625E-5,0,0,49,16771607,135182,13227,6682,3024,8057,2217,9995,Tag0,unknown
1488856391521,0,-316,-6.943359375000001E-5,0,0,49,16771607,135182,13227,6682,3024,8057,2217,9995,Tag0,unknown
1488856391521,0,-326,-7.163085937500001E-5,0,0,49,16771607,135182,13227,6682,3024,8057,2217,9995,Tag0,unknown
1488856391521,0,-289,-6.35009765625E-5,0,0,49,16771607,135182,13227,6682,3024,8057,2217,9995,Tag0,unknown
1488856391522,0,-257,-5.64697265625E-5,0,0,49,16771607,135182,13227,6682,3024,8057,2217,9995,Tag0,unknown
1488856391522,0,-266,-5.8447265625E-5,0,0,49,16771607,135182,13227,6682,3024,8057,2217,9995,Tag0,unknown
1488856391522,0,-281,-6.17431640625E-5,0,0,49,16771607,135182,13227,6682,3024,8057,2217,9995,Tag0,unknown
1488856391522,0,-281,-6.17431640625E-5,0,0,49,16771607,135182,13227,6682,3024,8057,2217,9995,Tag0,unknown
1488856391522,0,-278,-6.108398437500001E-5,0,0,49,16771607,135182,13227,6682,3024,8057,2217,9995,Tag0,unknown
1488856391523,0,-274,-6.0205078124999997E-5,0,0,49,16771607,135182,13227,6682,3024,8057,2217,9995,Tag0,unknown
1488856391523,0,-274,-6.0205078124999997E-5,0,0,49,16771607,135182,13227,6682,3024,8057,2217,9995,Tag0,unknown
1488856391523,0,-274,-6.0205078124999997E-5,0,0,49,16771607,135182,13227,6682,3024,8057,2217,9995,Tag0,unknown
1488856391523,0,-267,-5.86669921875E-5,0,0,49,16771607,135182,13227,6682,3024,8057,2217,9995,Tag0,unknown
1488856391524,0,8,1.7578125E-6,0,0,49,16771607,135182,13227,6682,3024,8057,2217,9995,Tag0,unknown
1488856391524,0,21,4.614257812500001E-6,0,0,49,16771607,135182,13227,6682,3024,8057,2217,9995,Tag0,unknown
1488856391524,0,22,4.833984375E-6,0,0,49,16771607,135182,13227,6682,3024,8057,2217,9995,Tag0,unknown
1488856391524,0,25,5.4931640625E-6,0,0,49,16771607,135182,13227,6682,3024,8057,2217,9995,Tag0,unknown
1488856391525,0,48,1.0546875E-5,0,0,49,16771607,135182,13227,6682,3024,8057,2217,9995,Tag0,unknown
1488856391525,0,72,1.58203125E-5,0,0,49,16771607,135182,13227,6682,3024,8057,2217,9995,Tag0,unknown
1488856391537,0,67,1.4721679687500002E-5,0,0,49,16771607,135182,13227,6682,3024,8057,2217,9995,Tag0,unknown
1488856391546,0,34,7.4707031250000005E-6,0,0,49,16771607,135182,13227,6682,3024,8057,2217,9995,Tag0,unknown
1488856391547,0,11,2.4169921875E-6,0,0,49,16771607,135182,13227,6682,3024,8057,2217,9995,Tag0,unknown
1488856391547,0,26,5.712890625E-6,0,0,49,16771607,135182,13227,6682,3024,8057,2217,9995,Tag0,unknown
1488856391547,0,55,1.20849609375E-5,0,0,49,16771607,135182,13227,6682,3024,8057,2217,9995,Tag0,unknown
1488856391547,0,70,1.5380859375E-5,0,0,49,16771607,135182,13227,6682,3024,8057,2217,9995,Tag0,unknown
1488856391548,0,67,1.4721679687500002E-5,0,0,49,16771607,135182,13227,6682,3024,8057,2217,9995,Tag0,unknown
1488856391548,0,64,1.40625E-5,0,0,49,16771607,135182,13227,6682,3024,8057,2217,9995,Tag0,unknown
1488856391548,0,54,1.1865234375000001E-5,0,0,49,16771607,135182,13227,6682,3024,8057,2217,9995,Tag0,unknown
1488856391549,0,48,1.0546875E-5,0,0,49,16771607,135182,13227,6682,3024,8057,2217,9995,Tag0,unknown
1488856391549,0,41,9.008789062499999E-6,0,0,49,16771607,135182,13227,6682,3024,8057,2217,9995,Tag0,unknown
1488856391549,0,43,9.448242187500001E-6,0,0,49,16771607,135182,13227,6682,3024,8057,2217,9995,Tag0,unknown
1488856391549,0,64,1.40625E-5,0,0,49,16771607,135182,13227,6682,3024,8057,2217,9995,Tag0,unknown
1488856391550,0,76,1.669921875E-5,0,0,49,16771607,135182,13227,6682,3024,8057,2217,9995,Tag0,unknown
1488856391550,0,69,1.51611328125E-5,0,0,49,16771607,135182,13227,6682,3024,8057,2217,9995,Tag0,unknown
1488856391550,0,55,1.20849609375E-5,0,0,49,16771607,135182,13227,6682,3024,8057,2217,9995,Tag0,unknown
1488856391551,0,65,1.42822265625E-5,0,0,49,16771607,135182,13227,6682,3024,8057,2217,9995,Tag0,unknown
1488856391551,0,90,1.9775390625E-5,0,0,49,16771607,135182,13227,6682,3024,8057,2217,9995,Tag0,unknown
1488856391551,0,115,2.52685546875E-5,0,0,49,16771607,135182,13227,6682,3024,8057,2217,9995,Tag0,unknown
1488856391551,0,103,2.26318359375E-5,0,0,49,16771607,135182,13227,6682,3024,8057,2217,9995,Tag0,unknown
1488856391577,0,84,1.8457031250000004E-5,0,0,49,16771607,135182,13227,6682,3024,8057,2217,9995,Tag0,unknown
1488856391579,0,75,1.64794921875E-5,0,0,49,16771607,135182,13227,6682,3024,8057,2217,9995,Tag0,unknown
1488856391580,0,72,1.58203125E-5,0,0,49,16771607,135182,13227,6682,3024,8057,2217,9995,Tag0,unknown
1488856391584,0,68,1.4941406250000001E-5,0,0,49,16771607,135182,13227,6682,3024,8057,2217,9995,Tag0,unknown
1488856391584,0,86,1.8896484375000003E-5,0,0,49,16771607,135182,13227,6682,3024,8057,2217,9995,Tag0,unknown
1488856391585,0,103,2.26318359375E-5,0,0,49,16771607,135182,13227,6682,3024,8057,2217,9995,Tag0,unknown
1488856391585,0,90,1.9775390625E-5,0,0,49,16771607,135182,13227,6682,3024,8057,2217,9995,Tag0,unknown
1488856391585,0,89,1.95556640625E-5,0,0,49,16771607,135182,13227,6682,3024,8057,2217,9995,Tag0,unknown
1488856391586,0,97,2.13134765625E-5,0,0,49,16771607,135182,13227,6682,3024,8057,2217,9995,Tag0,unknown
1488856391586,0,81,1.77978515625E-5,0,0,49,16771607,135182,13227,6682,3024,8057,2217,9995,Tag0,unknown
1488856391586,0,36,7.91015625E-6,0,0,49,16771607,135182,13227,6682,3024,8057,2217,9995,Tag0,unknown
1488856391587,0,-259,-5.69091796875E-5,0,0,49,16771607,135182,13227,6682,3024,8057,2217,9995,Tag0,unknown
1488856391587,0,-261,-5.73486328125E-5,0,0,49,16771607,135182,13227,6682,3024,8057,2217,9995,Tag0,unknown
1488856391587,0,6,1.318359375E-6,0,0,49,16771607,135182,13227,6682,3024,8057,2217,9995,Tag0,unknown
1488856391587,0,10,2.197265625E-6,0,0,49,16771607,135182,13227,6682,3024,8057,2217,9995,Tag0,unknown
1488856391588,0,18,3.955078125E-6,0,0,49,16771607,135182,13227,6682,3024,8057,2217,9995,Tag0,unknown
1488856391588,0,36,7.91015625E-6,0,0,49,16771607,135182,13227,6682,3024,8057,2217,9995,Tag0,unknown
1488856391588,0,58,1.2744140625E-5,0,0,49,16771607,135182,13227,6682,3024,8057,2217,9995,Tag0,unknown
1488856391588,0,59,1.29638671875E-5,0,0,49,16771607,135182,13227,6682,3024,8057,2217,9995,Tag0,unknown
1488856391589,0,39,8.5693359375E-6,0,0,49,16771607,135182,13227,6682,3024,8057,2217,9995,Tag0,unknown
1488856391617,0,35,7.6904296875E-6,0,0,49,16771607,135182,13227,6682,3024,8057,2217,9995,Tag0,unknown
1488856391617,0,51,1.1206054687499999E-5,0,0,49,16771607,135182,13227,6682,3024,8057,2217,9995,Tag0,unknown
1488856391617,0,60,1.318359375E-5,0,0,49,16771607,135182,13227,6682,3024,8057,2217,9995,Tag0,unknown
1488856391618,0,68,1.4941406250000001E-5,0,0,49,16771607,135182,13227,6682,3024,8057,2217,9995,Tag0,unknown
1488856391618,0,75,1.64794921875E-5,0,0,49,16771607,135182,13227,6682,3024,8057,2217,9995,Tag0,unknown
1488856391618,0,82,1.8017578124999998E-5,0,0,49,16771607,135182,13227,6682,3024,8057,2217,9995,Tag0,unknown
1488856391632,0,76,1.669921875E-5,0,0,49,16771607,135182,13227,6682,3024,8057,2217,9995,Tag0,unknown
1488856391632,0,53,1.1645507812500002E-5,0,0,49,16771607,135182,13227,6682,3024,8057,2217,9995,Tag0,unknown
1488856391633,0,27,5.9326171875000005E-6,0,0,49,16771607,135182,13227,6682,3024,8057,2217,9995,Tag0,unknown
1488856391633,0,26,5.712890625E-6,0,0,49,16771607,135182,13227,6682,3024,8057,2217,9995,Tag0,unknown
1488856391633,0,38,8.349609375E-6,0,0,49,16771607,135182,13227,6682,3024,8057,2217,9995,Tag0,unknown
1488856391633,0,37,8.1298828125E-6,0,0,49,16771607,135182,13227,6682,3024,8057,2217,9995,Tag0,unknown
1488856391633,0,1,2.197265625E-7,0,0,49,16771607,135182,13227,6682,3024,8057,2217,9995,Tag0,unknown
1488856391634,0,-286,-6.2841796875E-5,0,0,49,16771607,135182,13227,6682,3024,8057,2217,9995,Tag0,unknown
1488856391634,0,-290,-6.3720703125E-5,0,0,49,16771607,135182,13227,6682,3024,8057,2217,9995,Tag0,unknown
1488856391634,0,-282,-6.1962890625E-5,0,0,49,16771607,135182,13227,6682,3024,8057,2217,9995,Tag0,unknown
1488856391634,0,-269,-5.9106445312499996E-5,0,0,49,16771607,135182,13227,6682,3024,8057,2217,9995,Tag0,unknown
1488856391637,0,-261,-5.73486328125E-5,0,0,49,16771607,135182,13227,6682,3024,8057,2217,9995,Tag0,unknown
1488856391638,0,-284,-6.240234375E-5,0,0,49,16771607,135182,13227,6682,3024,8057,2217,9995,Tag0,unknown
1488856391638,0,-316,-6.943359375000001E-5,0,0,49,16771607,135182,13227,6682,3024,8057,2217,9995,Tag0,unknown
1488856391653,0,-311,-6.833496093750001E-5,0,0,49,16771607,135182,13227,6682,3024,8057,2217,9995,Tag0,unknown
1488856391663,0,-285,-6.26220703125E-5,0,0,49,16771607,135182,13227,6682,3024,8057,2217,9995,Tag0,unknown
1488856391664,0,-263,-5.7788085937500005E-5,0,0,49,16771607,135182,13227,6682,3024,8057,2217,9995,Tag0,unknown
1488856391664,0,-264,-5.80078125E-5,0,0,49,16771607,135182,13227,6682,3024,8057,2217,9995,Tag0,unknown
1488856391664,0,-301,-6.613769531250001E-5,0,0,49,16771607,135182,13227,6682,3024,8057,2217,9995,Tag0,unknown
1488856391664,0,-338,-7.426757812499999E-5,0,0,49,16771607,135182,13227,6682,3024,8057,2217,9995,Tag0,unknown
1488856391665,0,-341,-7.492675781250002E-5,0,0,49,16771607,135182,13227,6682,3024,8057,2217,9995,Tag0,unknown
1488856391665,0,-325,-7.14111328125E-5,0,0,49,16771607,135182,13227,6682,3024,8057,2217,9995,Tag0,unknown
1488856391665,0,-309,-6.78955078125E-5,0,0,49,16771607,135182,13227,6682,3024,8057,2217,9995,Tag0,unknown
1488856391665,0,-321,-7.053222656250001E-5,0,0,49,16771607,135182,13227,6682,3024,8057,2217,9995,Tag0,unknown
1488856391666,0,-326,-7.163085937500001E-5,0,0,49,16771607,135182,13227,6682,3024,8057,2217,9995,Tag0,unknown
1488856391666,0,-317,-6.96533203125E-5,0,0,49,16771607,135182,13227,6682,3024,8057,2217,9995,Tag0,unknown
1488856391666,0,-308,-6.767578125E-5,0,0,49,16771607,135182,13227,6682,3024,8057,2217,9995,Tag0,unknown
1488856391667,0,-295,-6.48193359375E-5,0,0,49,16771607,135182,13227,6682,3024,8057,2217,9995,Tag0,unknown
1488856391667,0,-294,-6.4599609375E-5,0,0,49,16771607,135182,13227,6682,3024,8057,2217,9995,Tag0,unknown
1488856391667,0,-306,-6.723632812500001E-5,0,0,49,16771607,135182,13227,6682,3024,8057,2217,9995,Tag0,unknown
1488856391667,0,-300,-6.591796875E-5,0,0,49,16771607,135182,13227,6682,3024,8057,2217,9995,Tag0,unknown
1488856391668,0,-273,-5.998535156250001E-5,0,0,49,16771607,135182,13227,6682,3024,8057,2217,9995,Tag0,unknown
1488856391668,0,-268,-5.8886718750000006E-5,0,0,49,16771607,135182,13227,6682,3024,8057,2217,9995,Tag0,unknown
1488856391669,0,-301,-6.613769531250001E-5,0,0,49,16771607,135182,13227,6682,3024,8057,2217,9995,Tag0,unknown
1488856391696,0,-327,-7.18505859375E-5,0,0,49,16771607,135182,13227,6682,3024,8057,2217,9995,Tag0,unknown
1488856391696,0,-331,-7.272949218750001E-5,0,0,49,16771607,135182,13227,6682,3024,8057,2217,9995,Tag0,unknown
1488856391696,0,-321,-7.053222656250001E-5,0,0,49,16771607,135182,13227,6682,3024,8057,2217,9995,Tag0,unknown
1488856391697,0,-311,-6.833496093750001E-5,0,0,49,16771607,135182,13227,6682,3024,8057,2217,9995,Tag0,unknown
1488856391698,0,-332,-7.294921875E-5,0,0,49,16771607,135182,13227,6682,3024,8057,2217,9995,Tag0,unknown
1488856391698,0,-366,-8.0419921875E-5,0,0,49,16771607,135182,13227,6682,3024,8057,2217,9995,Tag0,unknown
1488856391699,0,-132,-2.900390625E-5,0,0,49,16771607,135182,13227,6682,3024,8057,2217,9995,Tag0,unknown
1488856391699,0,-370,-8.1298828125E-5,0,0,49,16771607,135182,13227,6682,3024,8057,2217,9995,Tag0,unknown
1488856391699,0,-316,-6.943359375000001E-5,0,0,49,16771607,135182,13227,6682,3024,8057,2217,9995,Tag0,unknown
1488856391699,0,-262,-5.7568359375E-5,0,0,49,16771607,135182,13227,6682,3024,8057,2217,9995,Tag0,unknown
1488856391705,0,16,3.515625E-6,0,0,49,16771607,135182,13227,6682,3024,8057,2217,9995,Tag0,unknown
1488856391705,0,10,2.197265625E-6,0,0,49,16771607,135182,13227,6682,3024,8057,2217,9995,Tag0,unknown
1488856391705,0,-264,-5.80078125E-5,0,0,49,16771607,135182,13227,6682,3024,8057,2217,9995,Tag0,unknown
1488856391706,0,-279,-6.13037109375E-5,0,0,49,16771607,135182,13227,6682,3024,8057,2217,9995,Tag0,unknown
1488856391706,0,-264,-5.80078125E-5,0,0,49,16771607,135182,13227,6682,3024,8057,2217,9995,Tag0,unknown
1488856391707,0,9,1.9775390625E-6,37,30,49,239736,237813,7279,12879,12666,11197,3570,8339,Tag0,unknown
1488856391731,0,35,7.6904296875E-6,37,30,49,239736,237813,7279,12879,12666,11197,3570,8339,Tag0,unknown
1488856391731,0,56,1.23046875E-5,37,30,49,239736,237813,7279,12879,12666,11197,3570,8339,Tag0,unknown
1488856391732,0,65,1.42822265625E-5,37,30,49,239736,237813,7279,12879,12666,11197,3570,8339,Tag0,unknown
1488856391750,0,58,1.2744140625E-5,37,30,49,239736,237813,7279,12879,12666,11197,3570,8339,Tag0,unknown
1488856391750,0,60,1.318359375E-5,37,30,49,239736,237813,7279,12879,12666,11197,3570,8339,Tag0,unknown
1488856391751,0,81,1.77978515625E-5,37,30,49,239736,237813,7279,12879,12666,11197,3570,8339,Tag0,unknown
1488856391751,0,81,1.77978515625E-5,37,30,49,239736,237813,7279,12879,12666,11197,3570,8339,Tag0,unknown
1488856391751,0,66,1.4501953125E-5,37,30,49,239736,237813,7279,12879,12666,11197,3570,8339,Tag0,unknown
1488856391751,0,59,1.29638671875E-5,37,30,49,239736,237813,7279,12879,12666,11197,3570,8339,Tag0,unknown
1488856391752,0,61,1.34033203125E-5,37,30,49,239736,237813,7279,12879,12666,11197,3570,8339,Tag0,unknown
1488856391752,0,72,1.58203125E-5,37,30,49,239736,237813,7279,12879,12666,11197,3570,8339,Tag0,unknown
1488856391752,0,69,1.51611328125E-5,37,30,49,239736,237813,7279,12879,12666,11197,3570,8339,Tag0,unknown
1488856391752,0,37,8.1298828125E-6,37,30,49,239736,237813,7279,12879,12666,11197,3570,8339,Tag0,unknown
1488856391753,0,17,3.7353515625000003E-6,37,30,49,239736,237813,7279,12879,12666,11197,3570,8339,Tag0,unknown
1488856391753,0,28,6.15234375E-6,37,30,49,239736,237813,7279,12879,12666,11197,3570,8339,Tag0,unknown
1488856391753,0,42,9.228515625000002E-6,37,30,49,239736,237813,7279,12879,12666,11197,3570,8339,Tag0,unknown
1488856391753,0,42,9.228515625000002E-6,37,30,49,239736,237813,7279,12879,12666,11197,3570,8339,Tag0,unknown
1488856391754,0,43,9.448242187500001E-6,37,30,49,239736,237813,7279,12879,12666,11197,3570,8339,Tag0,unknown
1488856391754,0,53,1.1645507812500002E-5,37,30,49,239736,237813,7279,12879,12666,11197,3570,8339,Tag0,unknown
1488856391754,0,54,1.1865234375000001E-5,37,30,49,239736,237813,7279,12879,12666,11197,3570,8339,Tag0,unknown
1488856391768,0,37,8.1298828125E-6,37,30,49,239736,237813,7279,12879,12666,11197,3570,8339,Tag0,unknown
1488856391768,0,11,2.4169921875E-6,37,30,49,239736,237813,7279,12879,12666,11197,3570,8339,Tag0,unknown
1488856391768,0,2,4.39453125E-7,37,30,49,239736,237813,7279,12879,12666,11197,3570,8339,Tag0,unknown
1488856391781,0,16,3.515625E-6,37,30,49,239736,237813,7279,12879,12666,11197,3570,8339,Tag0,unknown
1488856391781,0,56,1.23046875E-5,37,30,49,239736,237813,7279,12879,12666,11197,3570,8339,Tag0,unknown
1488856391781,0,106,2.3291015625000003E-5,37,30,49,239736,237813,7279,12879,12666,11197,3570,8339,Tag0,unknown
1488856391782,0,-124,-2.724609375E-5,37,30,49,239736,237813,7279,12879,12666,11197,3570,8339,Tag0,unknown
1488856391782,0,120,2.63671875E-5,37,30,49,239736,237813,7279,12879,12666,11197,3570,8339,Tag0,unknown
1488856391782,0,99,2.1752929687500003E-5,37,30,49,239736,237813,7279,12879,12666,11197,3570,8339,Tag0,unknown
1488856391782,0,87,1.91162109375E-5,37,30,49,239736,237813,7279,12879,12666,11197,3570,8339,Tag0,unknown
1488856391783,0,92,2.021484375E-5,37,30,49,239736,237813,7279,12879,12666,11197,3570,8339,Tag0,unknown
1488856391783,0,118,2.5927734375E-5,37,30,49,239736,237813,7279,12879,12666,11197,3570,8339,Tag0,unknown
1488856391783,0,-118,-2.5927734375E-5,37,30,49,239736,237813,7279,12879,12666,11197,3570,8339,Tag0,unknown
1488856391783,0,117,2.5708007812499998E-5,37,30,49,239736,237813,7279,12879,12666,11197,3570,8339,Tag0,unknown
1488856391784,0,60,1.318359375E-5,37,30,49,239736,237813,7279,12879,12666,11197,3570,8339,Tag0,unknown
1488856391784,0,12,2.63671875E-6,37,30,49,239736,237813,7279,12879,12666,11197,3570,8339,Tag0,unknown
1488856391784,0,-263,-5.7788085937500005E-5,37,30,49,239736,237813,7279,12879,12666,11197,3570,8339,Tag0,unknown
1488856391784,0,16,3.515625E-6,37,30,49,239736,237813,7279,12879,12666,11197,3570,8339,Tag0,unknown
1488856391785,0,61,1.34033203125E-5,37,30,49,239736,237813,7279,12879,12666,11197,3570,8339,Tag0,unknown
1488856391785,0,101,2.2192382812500002E-5,37,30,49,239736,237813,7279,12879,12666,11197,3570,8339,Tag0,unknown
1488856391806,0,104,2.28515625E-5,37,30,49,239736,237813,7279,12879,12666,11197,3570,8339,Tag0,unknown
1488856391817,0,84,1.8457031250000004E-5,37,30,49,239736,237813,7279,12879,12666,11197,3570,8339,Tag0,unknown
1488856391818,0,58,1.2744140625E-5,37,30,49,239736,237813,7279,12879,12666,11197,3570,8339,Tag0,unknown
1488856391818,0,58,1.2744140625E-5,37,30,49,239736,237813,7279,12879,12666,11197,3570,8339,Tag0,unknown
1488856391818,0,75,1.64794921875E-5,37,30,49,239736,237813,7279,12879,12666,11197,3570,8339,Tag0,unknown
1488856391818,0,85,1.86767578125E-5,37,30,49,239736,237813,7279,12879,12666,11197,3570,8339,Tag0,unknown
1488856391819,0,88,1.93359375E-5,37,30,49,239736,237813,7279,12879,12666,11197,3570,8339,Tag0,unknown
1488856391819,0,87,1.91162109375E-5,37,30,49,239736,237813,7279,12879,12666,11197,3570,8339,Tag0,unknown
1488856391819,0,83,1.82373046875E-5,37,30,49,239736,237813,7279,12879,12666,11197,3570,8339,Tag0,unknown
1488856391819,0,73,1.6040039062500002E-5,37,30,49,239736,237813,7279,12879,12666,11197,3570,8339,Tag0,unknown
1488856391820,0,68,1.4941406250000001E-5,37,30,49,239736,237813,7279,12879,12666,11197,3570,8339,Tag0,unknown
1488856391820,0,59,1.29638671875E-5,37,30,49,239736,237813,7279,12879,12666,11197,3570,8339,Tag0,unknown
1488856391820,0,57,1.2524414062500001E-5,37,30,49,239736,237813,7279,12879,12666,11197,3570,8339,Tag0,unknown
1488856391821,0,57,1.2524414062500001E-5,37,30,49,239736,237813,7279,12879,12666,11197,3570,8339,Tag0,unknown
1488856391821,0,41,9.008789062499999E-6,37,30,49,239736,237813,7279,12879,12666,11197,3570,8339,Tag0,unknown
1488856391822,0,8,1.7578125E-6,37,30,49,239736,237813,7279,12879,12666,11197,3570,8339,Tag0,unknown
1488856391822,0,-261,-5.73486328125E-5,37,30,49,239736,237813,7279,12879,12666,11197,3570,8339,Tag0,unknown
1488856391822,0,20,4.39453125E-6,37,30,49,239736,237813,7279,12879,12666,11197,3570,8339,Tag0,unknown
1488856391822,0,76,1.669921875E-5,37,30,49,239736,237813,7279,12879,12666,11197,3570,8339,Tag0,unknown
1488856391831,0,92,2.021484375E-5,37,30,49,239736,237813,7279,12879,12666,11197,3570,8339,Tag0,unknown
1488856391848,0,41,9.008789062499999E-6,37,30,49,239736,237813,7279,12879,12666,11197,3570,8339,Tag0,unknown
1488856391850,0,17,3.7353515625000003E-6,37,30,49,239736,237813,7279,12879,12666,11197,3570,8339,Tag0,unknown
1488856391850,0,41,9.008789062499999E-6,37,30,49,239736,237813,7279,12879,12666,11197,3570,8339,Tag0,unknown
1488856391851,0,76,1.669921875E-5,37,30,49,239736,237813,7279,12879,12666,11197,3570,8339,Tag0,unknown
1488856391851,0,67,1.4721679687500002E-5,37,30,49,239736,237813,7279,12879,12666,11197,3570,8339,Tag0,unknown
1488856391851,0,21,4.614257812500001E-6,37,30,49,239736,237813,7279,12879,12666,11197,3570,8339,Tag0,unknown
1488856391851,0,5,1.0986328125E-6,37,30,49,239736,237813,7279,12879,12666,11197,3570,8339,Tag0,unknown
1488856391852,0,22,4.833984375E-6,37,30,49,239736,237813,7279,12879,12666,11197,3570,8339,Tag0,unknown
1488856391852,0,44,9.66796875E-6,37,30,49,239736,237813,7279,12879,12666,11197,3570,8339,Tag0,unknown
1488856391852,0,73,1.6040039062500002E-5,37,30,49,239736,237813,7279,12879,12666,11197,3570,8339,Tag0,unknown
1488856391864,0,114,2.5048828125000003E-5,37,30,49,239736,237813,7279,12879,12666,11197,3570,8339,Tag0,unknown
1488856391864,0,-126,-2.7685546875E-5,37,30,49,239736,237813,7279,12879,12666,11197,3570,8339,Tag0,unknown
1488856391865,0,104,2.28515625E-5,37,30,49,239736,237813,7279,12879,12666,11197,3570,8339,Tag0,unknown
1488856391865,0,84,1.8457031250000004E-5,37,30,49,239736,237813,7279,12879,12666,11197,3570,8339,Tag0,unknown
1488856391865,0,96,2.109375E-5,37,30,49,239736,237813,7279,12879,12666,11197,3570,8339,Tag0,unknown
1488856391865,0,102,2.2412109374999998E-5,37,30,49,239736,237813,7279,12879,12666,11197,3570,8339,Tag0,unknown
1488856391866,0,73,1.6040039062500002E-5,37,30,49,239736,237813,7279,12879,12666,11197,3570,8339,Tag0,unknown
1488856391866,0,17,3.7353515625000003E-6,37,30,49,239736,237813,7279,12879,12666,11197,3570,8339,Tag0,unknown
1488856391866,0,-267,-5.86669921875E-5,37,30,49,239736,237813,7279,12879,12666,11197,3570,8339,Tag0,unknown
1488856391866,0,-261,-5.73486328125E-5,37,30,49,239736,237813,7279,12879,12666,11197,3570,8339,Tag0,unknown
1488856391881,0,6,1.318359375E-6,37,30,49,239736,237813,7279,12879,12666,11197,3570,8339,Tag0,unknown
1488856391881,0,10,2.197265625E-6,37,30,49,239736,237813,7279,12879,12666,11197,3570,8339,Tag0,unknown
1488856391882,0,8,1.7578125E-6,37,30,49,239736,237813,7279,12879,12666,11197,3570,8339,Tag0,unknown
1488856391882,0,3,6.591796875E-7,37,30,49,239736,237813,7279,12879,12666,11197,3570,8339,Tag0,unknown
1488856391882,0,18,3.955078125E-6,37,30,49,239736,237813,7279,12879,12666,11197,3570,8339,Tag0,unknown
1488856391882,0,39,8.5693359375E-6,37,30,49,239736,237813,7279,12879,12666,11197,3570,8339,Tag0,unknown
1488856391883,0,24,5.2734375E-6,37,30,49,239736,237813,7279,12879,12666,11197,3570,8339,Tag0,unknown
1488856391898,0,3,6.591796875E-7,37,30,49,239736,237813,7279,12879,12666,11197,3570,8339,Tag0,unknown
1488856391898,0,16,3.515625E-6,37,30,49,239736,237813,7279,12879,12666,11197,3570,8339,Tag0,unknown
1488856391899,0,35,7.6904296875E-6,37,30,49,239736,237813,7279,12879,12666,11197,3570,8339,Tag0,unknown
1488856391899,0,38,8.349609375E-6,37,30,49,239736,237813,7279,12879,12666,11197,3570,8339,Tag0,unknown
1488856391899,0,34,7.4707031250000005E-6,37,30,49,239736,237813,7279,12879,12666,11197,3570,8339,Tag0,unknown
1488856391899,0,20,4.39453125E-6,37,30,49,239736,237813,7279,12879,12666,11197,3570,8339,Tag0,unknown
1488856391900,0,6,1.318359375E-6,37,30,49,239736,237813,7279,12879,12666,11197,3570,8339,Tag0,unknown
1488856391900,0,5,1.0986328125E-6,37,30,49,239736,237813,7279,12879,12666,11197,3570,8339,Tag0,unknown
1488856391900,0,27,5.9326171875000005E-6,37,30,49,239736,237813,7279,12879,12666,11197,3570,8339,Tag0,unknown
1488856391900,0,36,7.91015625E-6,37,30,49,239736,237813,7279,12879,12666,11197,3570,8339,Tag0,unknown
1488856391901,0,9,1.9775390625E-6,37,30,49,239736,237813,7279,12879,12666,11197,3570,8339,Tag0,unknown
1488856391901,0,0,0.0,37,30,49,239736,237813,7279,12879,12666,11197,3570,8339,Tag0,unknown
1488856391901,0,34,7.4707031250000005E-6,37,30,49,239736,237813,7279,12879,12666,11197,3570,8339,Tag0,unknown
1488856391921,0,83,1.82373046875E-5,37,30,49,239736,237813,7279,12879,12666,11197,3570,8339,Tag0,unknown
1488856391922,0,116,2.548828125E-5,37,30,49,239736,237813,7279,12879,12666,11197,3570,8339,Tag0,unknown
1488856391922,0,115,2.52685546875E-5,37,30,49,239736,237813,7279,12879,12666,11197,3570,8339,Tag0,unknown
1488856391923,0,81,1.77978515625E-5,37,30,49,239736,237813,7279,12879,12666,11197,3570,8339,Tag0,unknown
1488856391923,0,57,1.2524414062500001E-5,37,30,49,239736,237813,7279,12879,12666,11197,3570,8339,Tag0,unknown
1488856391923,0,45,9.8876953125E-6,37,30,49,239736,237813,7279,12879,12666,11197,3570,8339,Tag0,unknown
1488856391923,0,37,8.1298828125E-6,37,30,49,239736,237813,7279,12879,12666,11197,3570,8339,Tag0,unknown
1488856391925,0,57,1.2524414062500001E-5,37,30,49,239736,237813,7279,12879,12666,11197,3570,8339,Tag0,unknown
1488856391925,0,72,1.58203125E-5,37,30,49,239736,237813,7279,12879,12666,11197,3570,8339,Tag0,unknown
1488856391925,0,64,1.40625E-5,37,30,49,239736,237813,7279,12879,12666,11197,3570,8339,Tag0,unknown
1488856391932,0,76,1.669921875E-5,37,30,49,239736,237813,7279,12879,12666,11197,3570,8339,Tag0,unknown
1488856391932,0,123,2.70263671875E-5,37,30,49,239736,237813,7279,12879,12666,11197,3570,8339,Tag0,unknown
1488856391932,0,-109,-2.39501953125E-5,37,30,49,239736,237813,7279,12879,12666,11197,3570,8339,Tag0,unknown
1488856391932,0,-102,-2.2412109374999998E-5,37,30,49,239736,237813,7279,12879,12666,11197,3570,8339,Tag0,unknown
1488856391933,0,-84,-1.8457031250000004E-5,37,30,49,239736,237813,7279,12879,12666,11197,3570,8339,Tag0,unknown
1488856391933,0,-86,-1.8896484375000003E-5,37,30,49,239736,237813,7279,12879,12666,11197,3570,8339,Tag0,unknown
1488856391933,0,-102,-2.2412109374999998E-5,37,30,49,239736,237813,7279,12879,12666,11197,3570,8339,Tag0,unknown
1488856391933,0,-116,-2.548828125E-5,37,30,49,239736,237813,7279,12879,12666,11197,3570,8339,Tag0,unknown
1488856391934,0,-105,-2.30712890625E-5,37,30,49,239736,237813,7279,12879,12666,11197,3570,8339,Tag0,unknown
1488856391934,0,-74,-1.6259765625E-5,37,30,49,239736,237813,7279,12879,12666,11197,3570,8339,Tag0,unknown
1488856391957,0,-54,-1.1865234375000001E-5,37,30,49,239736,237813,7279,12879,12666,11197,3570,8339,Tag0,unknown
1488856391965,0,-41,-9.008789062499999E-6,37,30,49,239736,237813,7279,12879,12666,11197,3570,8339,Tag0,unknown
1488856391965,0,-5,-1.0986328125E-6,37,30,49,239736,237813,7279,12879,12666,11197,3570,8339,Tag0,unknown
1488856391966,0,297,6.525878906250001E-5,37,30,49,239736,237813,7279,12879,12666,11197,3570,8339,Tag0,unknown
1488856391966,0,308,6.767578125E-5,37,30,49,239736,237813,7279,12879,12666,11197,3570,8339,Tag0,unknown
1488856391966,0,313,6.87744140625E-5,37,30,49,239736,237813,7279,12879,12666,11197,3570,8339,Tag0,unknown
1488856391966,0,331,7.272949218750001E-5,37,30,49,239736,237813,7279,12879,12666,11197,3570,8339,Tag0,unknown
1488856391967,0,325,7.14111328125E-5,37,30,49,239736,237813,7279,12879,12666,11197,3570,8339,Tag0,unknown
1488856391967,0,284,6.240234375E-5,37,30,49,239736,237813,7279,12879,12666,11197,3570,8339,Tag0,unknown
1488856391967,0,-19,-4.1748046875E-6,37,30,49,239736,237813,7279,12879,12666,11197,3570,8339,Tag0,unknown
1488856391967,0,-37,-8.1298828125E-6,37,30,49,239736,237813,7279,12879,12666,11197,3570,8339,Tag0,unknown
1488856391968,0,-25,-5.4931640625E-6,37,30,49,239736,237813,7279,12879,12666,11197,3570,8339,Tag0,unknown
1488856391968,0,-7,-1.5380859375E-6,37,30,49,239736,237813,7279,12879,12666,11197,3570,8339,Tag0,unknown
1488856391968,0,266,5.8447265625E-5,37,30,49,239736,237813,7279,12879,12666,11197,3570,8339,Tag0,unknown
1488856391968,0,288,6.328125E-5,37,30,49,239736,237813,7279,12879,12666,11197,3570,8339,Tag0,unknown
1488856391969,0,309,6.78955078125E-5,37,30,49,239736,237813,7279,12879,12666,11197,3570,8339,Tag0,unknown
1488856391969,0,308,6.767578125E-5,37,30,49,239736,237813,7279,12879,12666,11197,3570,8339,Tag0,unknown
1488856391970,0,266,5.8447265625E-5,37,30,49,239736,237813,7279,12879,12666,11197,3570,8339,Tag0,unknown
1488856391971,0,-24,-5.2734375E-6,37,30,49,239736,237813,7279,12879,12666,11197,3570,8339,Tag0,unknown
1488856391971,0,-12,-2.63671875E-6,37,30,49,239736,237813,7279,12879,12666,11197,3570,8339,Tag0,unknown
1488856391995,0,261,5.73486328125E-5,37,30,49,239736,237813,7279,12879,12666,11197,3570,8339,Tag0,unknown
1488856391996,0,-12,-2.63671875E-6,37,30,49,239736,237813,7279,12879,12666,11197,3570,8339,Tag0,unknown
1488856391996,0,-41,-9.008789062499999E-6,37,30,49,239736,237813,7279,12879,12666,11197,3570,8339,Tag0,unknown
1488856392015,0,-54,-1.1865234375000001E-5,37,30,49,239736,237813,7279,12879,12666,11197,3570,8339,Tag0,unknown
1488856392016,0,-73,-1.6040039062500002E-5,37,30,49,239736,237813,7279,12879,12666,11197,3570,8339,Tag0,unknown
1488856392016,0,-95,-2.08740234375E-5,37,30,49,239736,237813,7279,12879,12666,11197,3570,8339,Tag0,unknown
1488856392016,0,-118,-2.5927734375E-5,37,30,49,239736,237813,7279,12879,12666,11197,3570,8339,Tag0,unknown
1488856392016,0,115,2.52685546875E-5,37,30,49,239736,237813,7279,12879,12666,11197,3570,8339,Tag0,unknown
1488856392017,0,89,1.95556640625E-5,37,30,49,239736,237813,7279,12879,12666,11197,3570,8339,Tag0,unknown
1488856392017,0,51,1.1206054687499999E-5,37,30,49,239736,237813,7279,12879,12666,11197,3570,8339,Tag0,unknown
1488856392017,0,20,4.39453125E-6,37,30,49,239736,237813,7279,12879,12666,11197,3570,8339,Tag0,unknown
1488856392017,0,29,6.3720703125E-6,37,30,49,239736,237813,7279,12879,12666,11197,3570,8339,Tag0,unknown
1488856392018,0,52,1.142578125E-5,37,30,49,239736,237813,7279,12879,12666,11197,3570,8339,Tag0,unknown
1488856392018,0,58,1.2744140625E-5,37,30,49,239736,237813,7279,12879,12666,11197,3570,8339,Tag0,unknown
1488856392018,0,57,1.2524414062500001E-5,37,30,49,239736,237813,7279,12879,12666,11197,3570,8339,Tag0,unknown
1488856392018,0,40,8.7890625E-6,37,30,49,239736,237813,7279,12879,12666,11197,3570,8339,Tag0,unknown
1488856392019,0,5,1.0986328125E-6,37,30,49,239736,237813,7279,12879,12666,11197,3570,8339,Tag0,unknown
1488856392019,0,-293,-6.43798828125E-5,37,30,49,239736,237813,7279,12879,12666,11197,3570,8339,Tag0,unknown
1488856392019,0,-322,-7.0751953125E-5,37,30,49,239736,237813,7279,12879,12666,11197,3570,8339,Tag0,unknown
1488856392019,0,-324,-7.119140625E-5,37,30,49,239736,237813,7279,12879,12666,11197,3570,8339,Tag0,unknown
1488856392036,0,-325,-7.14111328125E-5,37,30,49,239736,237813,7279,12879,12666,11197,3570,8339,Tag0,unknown
1488856392036,0,-350,-7.6904296875E-5,37,30,49,239736,237813,7279,12879,12666,11197,3570,8339,Tag0,unknown
1488856392036,0,-141,-3.09814453125E-5,37,30,49,239736,237813,7279,12879,12666,11197,3570,8339,Tag0,unknown
1488856392037,0,-161,-3.53759765625E-5,37,30,49,239736,237813,7279,12879,12666,11197,3570,8339,Tag0,unknown
1488856392037,0,-158,-3.4716796875000005E-5,37,30,49,239736,237813,7279,12879,12666,11197,3570,8339,Tag0,unknown
1488856392037,0,-164,-3.6035156249999995E-5,37,30,49,239736,237813,7279,12879,12666,11197,3570,8339,Tag0,unknown
1488856392038,0,-161,-3.53759765625E-5,37,30,49,239736,237813,7279,12879,12666,11197,3570,8339,Tag0,unknown
1488856392038,0,-163,-3.5815429687500006E-5,37,30,49,239736,237813,7279,12879,12666,11197,3570,8339,Tag0,unknown
1488856392038,0,-184,-4.04296875E-5,37,30,49,239736,237813,7279,12879,12666,11197,3570,8339,Tag0,unknown
1488856392038,0,-209,-4.59228515625E-5,37,30,49,239736,237813,7279,12879,12666,11197,3570,8339,Tag0,unknown
1488856392051,0,-232,-5.09765625E-5,37,30,49,239736,237813,7279,12879,12666,11197,3570,8339,Tag0,unknown
1488856392052,0,-243,-5.33935546875E-5,37,30,49,239736,237813,7279,12879,12666,11197,3570,8339,Tag0,unknown
1488856392052,0,-244,-5.361328125E-5,37,30,49,239736,237813,7279,12879,12666,11197,3570,8339,Tag0,unknown
1488856392052,0,-252,-5.537109375E-5,37,30,49,239736,237813,7279,12879,12666,11197,3570,8339,Tag0,unknown
1488856392052,0,-517,-1.135986328125E-4,37,30,49,239736,237813,7279,12879,12666,11197,3570,8339,Tag0,unknown
1488856392053,0,-514,-1.12939453125E-4,37,30,49,239736,237813,7279,12879,12666,11197,3570,8339,Tag0,unknown
1488856392053,0,-250,-5.4931640625E-5,37,30,49,239736,237813,7279,12879,12666,11197,3570,8339,Tag0,unknown
1488856392053,0,-250,-5.4931640625E-5,37,30,49,239736,237813,7279,12879,12666,11197,3570,8339,Tag0,unknown
1488856392053,0,-251,-5.5151367187500004E-5,37,30,49,239736,237813,7279,12879,12666,11197,3570,8339,Tag0,unknown
1488856392054,0,-231,-5.07568359375E-5,37,30,49,239736,237813,7279,12879,12666,11197,3570,8339,Tag0,unknown
1488856392075,0,-220,-4.833984375E-5,37,30,49,239736,237813,7279,12879,12666,11197,3570,8339,Tag0,unknown
1488856392075,0,-235,-5.16357421875E-5,37,30,49,239736,237813,7279,12879,12666,11197,3570,8339,Tag0,unknown
1488856392076,0,-244,-5.361328125E-5,37,30,49,239736,237813,7279,12879,12666,11197,3570,8339,Tag0,unknown
1488856392076,0,-237,-5.2075195312500004E-5,37,30,49,239736,237813,7279,12879,12666,11197,3570,8339,Tag0,unknown
1488856392084,0,-233,-5.1196289062500006E-5,37,30,49,239736,237813,7279,12879,12666,11197,3570,8339,Tag0,unknown
1488856392085,0,-228,-5.0097656250000005E-5,37,30,49,239736,237813,7279,12879,12666,11197,3570,8339,Tag0,unknown
1488856392085,0,-232,-5.09765625E-5,37,30,49,239736,237813,7279,12879,12666,11197,3570,8339,Tag0,unknown
1488856392085,0,-241,-5.29541015625E-5,37,30,49,239736,237813,7279,12879,12666,11197,3570,8339,Tag0,unknown
1488856392086,0,-525,-1.153564453125E-4,37,30,49,239736,237813,7279,12879,12666,11197,3570,8339,Tag0,unknown
1488856392086,0,-547,-1.201904296875E-4,37,30,49,239736,237813,7279,12879,12666,11197,3570,8339,Tag0,unknown
1488856392086,0,-537,-1.179931640625E-4,37,30,49,239736,237813,7279,12879,12666,11197,3570,8339,Tag0,unknown
1488856392086,0,-253,-5.55908203125E-5,37,30,49,239736,237813,7279,12879,12666,11197,3570,8339,Tag0,unknown
1488856392087,0,-242,-5.3173828125000005E-5,37,30,49,239736,237813,7279,12879,12666,11197,3570,8339,Tag0,unknown
1488856392087,0,-517,-1.135986328125E-4,37,30,49,239736,237813,7279,12879,12666,11197,3570,8339,Tag0,unknown
1488856392087,0,-539,-1.1843261718750001E-4,37,30,49,239736,237813,7279,12879,12666,11197,3570,8339,Tag0,unknown
1488856392087,0,-538,-1.1821289062499999E-4,37,30,49,239736,237813,7279,12879,12666,11197,3570,8339,Tag0,unknown
1488856392088,0,-522,-1.14697265625E-4,37,30,49,239736,237813,7279,12879,12666,11197,3570,8339,Tag0,unknown
1488856392088,0,-246,-5.4052734375E-5,37,30,49,239736,237813,7279,12879,12666,11197,3570,8339,Tag0,unknown
1488856392088,0,-217,-4.76806640625E-5,37,30,49,239736,237813,7279,12879,12666,11197,3570,8339,Tag0,unknown
1488856392088,0,-195,-4.28466796875E-5,37,30,49,239736,237813,7279,12879,12666,11197,3570,8339,Tag0,unknown
1488856392112,0,-193,-4.2407226562500005E-5,37,30,49,239736,237813,7279,12879,12666,11197,3570,8339,Tag0,unknown
1488856392113,0,-200,-4.39453125E-5,37,30,49,239736,237813,7279,12879,12666,11197,3570,8339,Tag0,unknown
1488856392113,0,-204,-4.4824218749999996E-5,37,30,49,239736,237813,7279,12879,12666,11197,3570,8339,Tag0,unknown
1488856392132,0,-201,-4.41650390625E-5,37,30,49,239736,237813,7279,12879,12666,11197,3570,8339,Tag0,unknown
1488856392133,0,-198,-4.3505859375000006E-5,37,30,49,239736,237813,7279,12879,12666,11197,3570,8339,Tag0,unknown
1488856392133,0,-187,-4.10888671875E-5,37,30,49,239736,237813,7279,12879,12666,11197,3570,8339,Tag0,unknown
1488856392133,0,-193,-4.2407226562500005E-5,37,30,49,239736,237813,7279,12879,12666,11197,3570,8339,Tag0,unknown
1488856392133,0,-203,-4.460449218750001E-5,37,30,49,239736,237813,7279,12879,12666,11197,3570,8339,Tag0,unknown
1488856392134,0,-216,-4.7460937500000004E-5,37,30,49,239736,237813,7279,12879,12666,11197,3570,8339,Tag0,unknown
1488856392134,0,-222,-4.8779296875E-5,37,30,49,239736,237813,7279,12879,12666,11197,3570,8339,Tag0,unknown
1488856392134,0,-216,-4.7460937500000004E-5,37,30,49,239736,237813,7279,12879,12666,11197,3570,8339,Tag0,unknown
1488856392134,0,-197,-4.32861328125E-5,37,30,49,239736,237813,7279,12879,12666,11197,3570,8339,Tag0,unknown
1488856392135,0,-180,-3.955078125E-5,37,30,49,239736,237813,7279,12879,12666,11197,3570,8339,Tag0,unknown
1488856392135,0,-169,-3.7133789062499996E-5,37,30,49,239736,237813,7279,12879,12666,11197,3570,8339,Tag0,unknown
1488856392136,0,-136,-2.9882812500000002E-5,37,30,49,239736,237813,7279,12879,12666,11197,3570,8339,Tag0,unknown
1488856392136,0,-364,-7.998046875E-5,37,30,49,239736,237813,7279,12879,12666,11197,3570,8339,Tag0,unknown
1488856392136,0,-130,-2.8564453125E-5,37,30,49,239736,237813,7279,12879,12666,11197,3570,8339,Tag0,unknown
1488856392137,0,-156,-3.427734375E-5,37,30,49,239736,237813,7279,12879,12666,11197,3570,8339,Tag0,unknown
1488856392137,0,-167,-3.6694335937500004E-5,37,30,49,239736,237813,7279,12879,12666,11197,3570,8339,Tag0,unknown
1488856392137,0,-154,-3.3837890625E-5,37,30,49,239736,237813,7279,12879,12666,11197,3570,8339,Tag0,unknown
1488856392156,0,-372,-8.173828125E-5,37,30,49,239736,237813,7279,12879,12666,11197,3570,8339,Tag0,unknown
1488856392169,0,-329,-7.229003906250001E-5,37,30,49,239736,237813,7279,12879,12666,11197,3570,8339,Tag0,unknown
1488856392170,0,-310,-6.8115234375E-5,37,30,49,239736,237813,7279,12879,12666,11197,3570,8339,Tag0,unknown
1488856392170,0,-326,-7.163085937500001E-5,37,30,49,239736,237813,7279,12879,12666,11197,3570,8339,Tag0,unknown
1488856392170,0,-346,-7.6025390625E-5,37,30,49,239736,237813,7279,12879,12666,11197,3570,8339,Tag0,unknown
1488856392171,0,-343,-7.53662109375E-5,37,30,49,239736,237813,7279,12879,12666,11197,3570,8339,Tag0,unknown
1488856392171,0,-332,-7.294921875E-5,37,30,49,239736,237813,7279,12879,12666,11197,3570,8339,Tag0,unknown
1488856392171,0,-339,-7.448730468750001E-5,37,30,49,239736,237813,7279,12879,12666,11197,3570,8339,Tag0,unknown
1488856392171,0,-353,-7.75634765625E-5,37,30,49,239736,237813,7279,12879,12666,11197,3570,8339,Tag0,unknown
1488856392172,0,-355,-7.80029296875E-5,37,30,49,239736,237813,7279,12879,12666,11197,3570,8339,Tag0,unknown
1488856392173,0,-343,-7.53662109375E-5,37,30,49,239736,237813,7279,12879,12666,11197,3570,8339,Tag0,unknown
1488856392173,0,-327,-7.18505859375E-5,37,30,49,239736,237813,7279,12879,12666,11197,3570,8339,Tag0,unknown
1488856392173,0,-318,-6.9873046875E-5,37,30,49,239736,237813,7279,12879,12666,11197,3570,8339,Tag0,unknown
1488856392173,0,-318,-6.9873046875E-5,37,30,49,239736,237813,7279,12879,12666,11197,3570,8339,Tag0,unknown
1488856392174,0,-318,-6.9873046875E-5,37,30,49,239736,237813,7279,12879,12666,11197,3570,8339,Tag0,unknown
1488856392174,0,-310,-6.8115234375E-5,37,30,49,239736,237813,7279,12879,12666,11197,3570,8339,Tag0,unknown
1488856392174,0,-279,-6.13037109375E-5,37,30,49,239736,237813,7279,12879,12666,11197,3570,8339,Tag0,unknown
1488856392174,0,18,3.955078125E-6,37,30,49,239736,237813,7279,12879,12666,11197,3570,8339,Tag0,unknown
1488856392175,0,41,9.008789062499999E-6,37,30,54,239736,237813,7279,12879,12666,11197,3570,8339,Tag0,unknown
1488856392175,0,37,8.1298828125E-6,37,30,54,239736,237813,7279,12879,12666,11197,3570,8339,Tag0,unknown
1488856392196,0,18,3.955078125E-6,37,30,54,239736,237813,7279,12879,12666,11197,3570,8339,Tag0,unknown
1488856392197,0,23,5.0537109375E-6,37,30,54,239736,237813,7279,12879,12666,11197,3570,8339,Tag0,unknown
1488856392197,0,39,8.5693359375E-6,37,30,54,239736,237813,7279,12879,12666,11197,3570,8339,Tag0,unknown
1488856392197,0,44,9.66796875E-6,37,30,54,239736,237813,7279,12879,12666,11197,3570,8339,Tag0,unknown
1488856392197,0,44,9.66796875E-6,37,30,54,239736,237813,7279,12879,12666,11197,3570,8339,Tag0,unknown
1488856392198,0,41,9.008789062499999E-6,37,30,54,239736,237813,7279,12879,12666,11197,3570,8339,Tag0,unknown
1488856392198,0,48,1.0546875E-5,37,30,54,239736,237813,7279,12879,12666,11197,3570,8339,Tag0,unknown
1488856392201,0,58,1.2744140625E-5,37,30,54,239736,237813,7279,12879,12666,11197,3570,8339,Tag0,unknown
1488856392202,0,72,1.58203125E-5,37,30,54,239736,237813,7279,12879,12666,11197,3570,8339,Tag0,unknown
1488856392202,0,105,2.30712890625E-5,37,30,54,239736,237813,7279,12879,12666,11197,3570,8339,Tag0,unknown
1488856392202,0,-118,-2.5927734375E-5,37,30,54,239736,237813,7279,12879,12666,11197,3570,8339,Tag0,unknown
1488856392203,0,-120,-2.63671875E-5,37,30,54,239736,237813,7279,12879,12666,11197,3570,8339,Tag0,unknown
1488856392203,0,117,2.5708007812499998E-5,37,30,54,239736,237813,7279,12879,12666,11197,3570,8339,Tag0,unknown
1488856392203,0,109,2.39501953125E-5,37,30,54,239736,237813,7279,12879,12666,11197,3570,8339,Tag0,unknown
1488856392204,0,121,2.6586914062500003E-5,37,30,54,239736,237813,7279,12879,12666,11197,3570,8339,Tag0,unknown
1488856392204,0,-126,-2.7685546875E-5,37,30,54,239736,237813,7279,12879,12666,11197,3570,8339,Tag0,unknown
1488856392204,0,124,2.724609375E-5,37,30,54,239736,237813,7279,12879,12666,11197,3570,8339,Tag0,unknown
1488856392204,0,109,2.39501953125E-5,37,30,54,239736,237813,7279,12879,12666,11197,3570,8339,Tag0,unknown
1488856392205,0,100,2.197265625E-5,37,30,54,239736,237813,7279,12879,12666,11197,3570,8339,Tag0,unknown
1488856392205,0,105,2.30712890625E-5,37,30,54,239736,237813,7279,12879,12666,11197,3570,8339,Tag0,unknown
1488856392231,0,-126,-2.7685546875E-5,37,30,54,239736,237813,7279,12879,12666,11197,3570,8339,Tag0,unknown
1488856392231,0,-117,-2.5708007812499998E-5,37,30,54,239736,237813,7279,12879,12666,11197,3570,8339,Tag0,unknown
1488856392232,0,125,2.74658203125E-5,37,30,54,239736,237813,7279,12879,12666,11197,3570,8339,Tag0,unknown
1488856392249,0,117,2.5708007812499998E-5,37,30,54,239736,237813,7279,12879,12666,11197,3570,8339,Tag0,unknown
1488856392250,0,122,2.6806640625E-5,37,30,54,239736,237813,7279,12879,12666,11197,3570,8339,Tag0,unknown
1488856392250,0,-120,-2.63671875E-5,37,30,54,239736,237813,7279,12879,12666,11197,3570,8339,Tag0,unknown
1488856392250,0,-117,-2.5708007812499998E-5,37,30,54,239736,237813,7279,12879,12666,11197,3570,8339,Tag0,unknown
1488856392250,0,114,2.5048828125000003E-5,37,30,54,239736,237813,7279,12879,12666,11197,3570,8339,Tag0,unknown
1488856392251,0,83,1.82373046875E-5,37,30,54,239736,237813,7279,12879,12666,11197,3570,8339,Tag0,unknown
1488856392251,0,66,1.4501953125E-5,37,30,54,239736,237813,7279,12879,12666,11197,3570,8339,Tag0,unknown
1488856392251,0,65,1.42822265625E-5,37,30,54,239736,237813,7279,12879,12666,11197,3570,8339,Tag0,unknown
1488856392251,0,77,1.69189453125E-5,37,30,54,239736,237813,7279,12879,12666,11197,3570,8339,Tag0,unknown
1488856392252,0,86,1.8896484375000003E-5,37,30,54,239736,237813,7279,12879,12666,11197,3570,8339,Tag0,unknown
1488856392252,0,70,1.5380859375E-5,37,30,54,239736,237813,7279,12879,12666,11197,3570,8339,Tag0,unknown
1488856392252,0,49,1.07666015625E-5,37,30,54,239736,237813,7279,12879,12666,11197,3570,8339,Tag0,unknown
1488856392252,0,50,1.0986328125E-5,37,30,54,239736,237813,7279,12879,12666,11197,3570,8339,Tag0,unknown
1488856392253,0,60,1.318359375E-5,37,30,54,239736,237813,7279,12879,12666,11197,3570,8339,Tag0,unknown
1488856392253,0,70,1.5380859375E-5,37,30,54,239736,237813,7279,12879,12666,11197,3570,8339,Tag0,unknown
1488856392253,0,89,1.95556640625E-5,37,30,54,239736,237813,7279,12879,12666,11197,3570,8339,Tag0,unknown
1488856392253,0,103,2.26318359375E-5,37,30,54,239736,237813,7279,12879,12666,11197,3570,8339,Tag0,unknown
1488856392272,0,86,1.8896484375000003E-5,37,30,54,239736,237813,7279,12879,12666,11197,3570,8339,Tag0,unknown
1488856392286,0,53,1.1645507812500002E-5,37,30,54,239736,237813,7279,12879,12666,11197,3570,8339,Tag0,unknown
1488856392286,0,33,7.2509765625E-6,37,30,54,239736,237813,7279,12879,12666,11197,3570,8339,Tag0,unknown
1488856392286,0,33,7.2509765625E-6,37,30,54,239736,237813,7279,12879,12666,11197,3570,8339,Tag0,unknown
1488856392286,0,37,8.1298828125E-6,37,30,54,239736,237813,7279,12879,12666,11197,3570,8339,Tag0,unknown
1488856392287,0,35,7.6904296875E-6,37,30,54,239736,237813,7279,12879,12666,11197,3570,8339,Tag0,unknown
1488856392287,0,21,4.614257812500001E-6,37,30,54,239736,237813,7279,12879,12666,11197,3570,8339,Tag0,unknown
1488856392287,0,19,4.1748046875E-6,37,30,54,239736,237813,7279,12879,12666,11197,3570,8339,Tag0,unknown
1488856392287,0,41,9.008789062499999E-6,37,30,54,239736,237813,7279,12879,12666,11197,3570,8339,Tag0,unknown
1488856392288,0,80,1.7578125E-5,37,30,54,239736,237813,7279,12879,12666,11197,3570,8339,Tag0,unknown
1488856392288,0,81,1.77978515625E-5,37,30,54,239736,237813,7279,12879,12666,11197,3570,8339,Tag0,unknown
1488856392289,0,35,7.6904296875E-6,37,30,54,239736,237813,7279,12879,12666,11197,3570,8339,Tag0,unknown
1488856392289,0,5,1.0986328125E-6,37,30,54,239736,237813,7279,12879,12666,11197,3570,8339,Tag0,unknown
1488856392289,0,10,2.197265625E-6,37,30,54,239736,237813,7279,12879,12666,11197,3570,8339,Tag0,unknown
1488856392289,0,9,1.9775390625E-6,37,30,54,239736,237813,7279,12879,12666,11197,3570,8339,Tag0,unknown
1488856392289,0,-262,-5.7568359375E-5,37,30,54,239736,237813,7279,12879,12666,11197,3570,8339,Tag0,unknown
1488856392290,0,-266,-5.8447265625E-5,37,30,54,239736,237813,7279,12879,12666,11197,3570,8339,Tag0,unknown
1488856392290,0,4,8.7890625E-7,37,30,54,239736,237813,7279,12879,12666,11197,3570,8339,Tag0,unknown
1488856392290,0,12,2.63671875E-6,37,30,54,239736,237813,7279,12879,12666,11197,3570,8339,Tag0,unknown
1488856392291,0,1,2.197265625E-7,37,30,54,239736,237813,7279,12879,12666,11197,3570,8339,Tag0,unknown
1488856392315,0,-268,-5.8886718750000006E-5,37,30,54,239736,237813,7279,12879,12666,11197,3570,8339,Tag0,unknown
1488856392335,0,3,6.591796875E-7,37,30,54,239736,237813,7279,12879,12666,11197,3570,8339,Tag0,unknown
1488856392335,0,28,6.15234375E-6,37,30,54,239736,237813,7279,12879,12666,11197,3570,8339,Tag0,unknown
1488856392335,0,33,7.2509765625E-6,37,30,54,239736,237813,7279,12879,12666,11197,3570,8339,Tag0,unknown
1488856392336,0,12,2.63671875E-6,37,30,54,239736,237813,7279,12879,12666,11197,3570,8339,Tag0,unknown
1488856392336,0,-269,-5.9106445312499996E-5,37,30,54,239736,237813,7279,12879,12666,11197,3570,8339,Tag0,unknown
1488856392336,0,-297,-6.525878906250001E-5,37,30,54,239736,237813,7279,12879,12666,11197,3570,8339,Tag0,unknown
1488856392336,0,-306,-6.723632812500001E-5,37,30,54,239736,237813,7279,12879,12666,11197,3570,8339,Tag0,unknown
1488856392338,0,-301,-6.613769531250001E-5,37,30,54,239736,237813,7279,12879,12666,11197,3570,8339,Tag0,unknown
1488856392338,0,-311,-6.833496093750001E-5,37,30,54,239736,237813,7279,12879,12666,11197,3570,8339,Tag0,unknown
1488856392338,0,-316,-6.943359375000001E-5,37,30,54,239736,237813,7279,12879,12666,11197,3570,8339,Tag0,unknown
1488856392338,0,-306,-6.723632812500001E-5,37,30,54,239736,237813,7279,12879,12666,11197,3570,8339,Tag0,unknown
1488856392339,0,-291,-6.39404296875E-5,37,30,54,239736,237813,7279,12879,12666,11197,3570,8339,Tag0,unknown
1488856392339,0,-290,-6.3720703125E-5,37,30,54,239736,237813,7279,12879,12666,11197,3570,8339,Tag0,unknown
1488856392339,0,-294,-6.4599609375E-5,37,30,54,239736,237813,7279,12879,12666,11197,3570,8339,Tag0,unknown
1488856392339,0,-284,-6.240234375E-5,37,30,54,239736,237813,7279,12879,12666,11197,3570,8339,Tag0,unknown
1488856392340,0,-266,-5.8447265625E-5,37,30,54,239736,237813,7279,12879,12666,11197,3570,8339,Tag0,unknown
1488856392340,0,-262,-5.7568359375E-5,37,30,54,239736,237813,7279,12879,12666,11197,3570,8339,Tag0,unknown
1488856392340,0,-275,-6.04248046875E-5,37,30,54,239736,237813,7279,12879,12666,11197,3570,8339,Tag0,unknown
1488856392340,0,-278,-6.108398437500001E-5,37,30,54,239736,237813,7279,12879,12666,11197,3570,8339,Tag0,unknown
1488856392353,0,-263,-5.7788085937500005E-5,37,30,54,239736,237813,7279,12879,12666,11197,3570,8339,Tag0,unknown
1488856392353,0,0,0.0,37,30,54,239736,237813,7279,12879,12666,11197,3570,8339,Tag0,unknown
1488856392353,0,-277,-6.0864257812500005E-5,37,30,54,239736,237813,7279,12879,12666,11197,3570,8339,Tag0,unknown
1488856392354,0,-307,-6.74560546875E-5,37,30,54,239736,237813,7279,12879,12666,11197,3570,8339,Tag0,unknown
1488856392354,0,-310,-6.8115234375E-5,37,30,54,239736,237813,7279,12879,12666,11197,3570,8339,Tag0,unknown
1488856392354,0,-285,-6.26220703125E-5,37,30,54,239736,237813,7279,12879,12666,11197,3570,8339,Tag0,unknown
1488856392354,0,-262,-5.7568359375E-5,37,30,54,239736,237813,7279,12879,12666,11197,3570,8339,Tag0,unknown
1488856392354,0,1,2.197265625E-7,37,30,54,239736,237813,7279,12879,12666,11197,3570,8339,Tag0,unknown
1488856392355,0,9,1.9775390625E-6,37,30,54,239736,237813,7279,12879,12666,11197,3570,8339,Tag0,unknown
1488856392355,0,33,7.2509765625E-6,37,30,54,239736,237813,7279,12879,12666,11197,3570,8339,Tag0,unknown
1488856392366,0,58,1.2744140625E-5,37,30,54,239736,237813,7279,12879,12666,11197,3570,8339,Tag0,unknown
1488856392366,0,67,1.4721679687500002E-5,37,30,54,239736,237813,7279,12879,12666,11197,3570,8339,Tag0,unknown
1488856392367,0,60,1.318359375E-5,37,30,54,239736,237813,7279,12879,12666,11197,3570,8339,Tag0,unknown
1488856392367,0,68,1.4941406250000001E-5,37,30,54,239736,237813,7279,12879,12666,11197,3570,8339,Tag0,unknown
1488856392367,0,86,1.8896484375000003E-5,37,30,54,239736,237813,7279,12879,12666,11197,3570,8339,Tag0,unknown
1488856392367,0,101,2.2192382812500002E-5,37,30,54,239736,237813,7279,12879,12666,11197,3570,8339,Tag0,unknown
1488856392368,0,100,2.197265625E-5,37,30,54,239736,237813,7279,12879,12666,11197,3570,8339,Tag0,unknown
1488856392368,0,82,1.8017578124999998E-5,37,30,54,239736,237813,7279,12879,12666,11197,3570,8339,Tag0,unknown
